BOXY.EXE: ISS Imagent Data Acquisition Program Version 0.82
Ascii Record File

#ACQ INFORMATION
1  Detector Channels 
8  External MUX Channels 
4  Auxiliary Analog Channels 
5000  Waveform (CCF) Frequency (Hz)
4  Waveforms Skipped 
26  Waveforms Averaged 
1  Cycles Averaged 
8  Acquisitions per Waveform 
1  Auxiliary Digital Channels 

#Data Update Rate
20.8333  Update Rate (Hz) 
FALSE -- Use Phase Reference
FALSE -- Use Continuous Phase Reference
FALSE -- Use Intensity Reference
FALSE -- Use Continuous Intensity Reference

#FILE INFORMATION
TRUE -- External MUX Channel results are PARSED.
FALSE -- AC DC and Phase are NOT grouped.
TRUE -- Companion Program Settings File CREATED.
FALSE -- AC data not excluded
FALSE -- DC data not excluded
FALSE -- Phase data not excluded
FALSE -- Auxillary Chn. data not excluded
Tab delimiters

#CALIBRATION STATE
FALSE -- Waveform Calibration Values NOT applied.

#WAVELENGTH DATA
Wavelength Index	Wavelength	Comp1 ExtCoef	Comp2 ExtCoef	Comp3 ExtCoef	Comp4 ExtCoef	BackGround	Weight	

1	6.600e+02	1.486e+00	3.844e+00	1.000e+00	1.000e+00	1.890e-02	1.000e+00	
2	6.900e+02	2.315e+00	1.792e+00	1.000e+00	1.000e+00	2.180e-02	1.000e+00	
3	7.500e+02	1.000e+00	1.000e+00	1.000e+00	1.000e+00	3.010e-03	1.000e+00	
4	7.750e+02	1.000e+00	1.000e+00	1.000e+00	1.000e+00	3.240e-03	1.000e+00	
5	7.850e+02	1.000e+00	1.000e+00	1.000e+00	1.000e+00	1.660e-02	1.000e+00	
6	8.000e+02	1.000e+00	1.000e+00	1.000e+00	1.000e+00	1.480e-02	1.000e+00	
7	8.250e+02	1.000e+00	1.000e+00	1.000e+00	1.000e+00	1.620e-02	1.000e+00	
8	8.300e+02	1.000e+00	1.000e+00	1.000e+00	1.000e+00	2.620e-02	1.000e+00	


#AUX CALIBRATION VALUES
Val Type	aux-1	aux-2	aux-3	aux-4	

Term	0.0000e+00	0.0000e+00	0.0000e+00	0.0000e+00	
Factor	1.0000e+00	1.0000e+00	1.0000e+00	1.0000e+00	


#WF CALIBRATION VALUES
A = Detector Channel
Val Type	A-AC1	A-AC2	A-AC3	A-AC4	A-AC5	A-AC6	A-AC7	A-AC8	A-DC1	A-DC2	A-DC3	A-DC4	A-DC5	A-DC6	A-DC7	A-DC8	A-Ph1	A-Ph2	A-Ph3	A-Ph4	A-Ph5	A-Ph6	A-Ph7	A-Ph8	

Term	0.00000e+00	0.00000e+00	0.00000e+00	0.00000e+00	0.00000e+00	0.00000e+00	0.00000e+00	0.00000e+00	0.00000e+00	0.00000e+00	0.00000e+00	0.00000e+00	0.00000e+00	0.00000e+00	0.00000e+00	0.00000e+00	-1.05892e+02	-9.99249e+01	-2.86485e+02	-2.62799e+02	-2.45797e+02	-2.48632e+02	-7.72400e+01	-7.86612e+01	
Factor	3.48934e-02	2.88771e-02	2.23541e-02	4.58344e-02	3.11822e-02	3.92311e-02	3.80806e-02	2.80088e-02	4.70955e+01	8.07534e+01	3.66973e+01	1.04434e+02	6.45565e+01	3.94082e+01	9.13796e+01	5.49806e+01	X	X	X	X	X	X	X	X	



#DISTANCE SETTINGS
A = Detector Channel
A-1	A-2	A-3	A-4	A-5	A-6	A-7	A-8	

1.5000e+00	1.5000e+00	1.5000e+00	1.5000e+00	1.5000e+00	1.5000e+00	1.5000e+00	1.5000e+00	



#ADDITIONAL SIGNAL INFORMATION
A = Detector Channel
Info. Type	A-1	A-2	A-3	A-4	A-5	A-6	A-7	A-8	

cal. block. ind.	1	1	1	1	1	1	1	1	
wavelength ind.	0	1	2	3	4	5	6	7	
weight	1.0000e+00	1.0000e+00	1.0000e+00	1.0000e+00	1.0000e+00	1.0000e+00	1.0000e+00	1.0000e+00	


#CALIBRATION BLOCK OPTICAL PROPS
Calib. Block Num.	WaveLen Index	Absorption	Scattering	

1	1	1.080e-01	9.000e+00	
1	2	1.300e-01	1.070e+01	
1	3	1.130e-01	9.400e+00	
1	4	1.210e-01	1.000e+01	
1	5	1.080e-01	9.000e+00	
1	6	1.300e-01	1.070e+01	
1	7	1.150e-01	9.600e+00	
1	8	1.330e-01	1.090e+01	

Calib. Block Num.	WaveLen Index	Absorption	Scattering	

2	1	1.120e-01	4.400e+00	
2	2	1.200e-01	5.700e+00	
2	3	1.140e-01	4.600e+00	
2	4	1.160e-01	5.100e+00	
2	5	1.120e-01	4.400e+00	
2	6	1.200e-01	5.700e+00	
2	7	1.150e-01	4.800e+00	
2	8	1.210e-01	6.000e+00	

Calib. Block Num.	WaveLen Index	Absorption	Scattering	

3	1	9.300e-02	8.700e+00	
3	2	1.010e-01	1.040e+01	
3	3	9.500e-02	9.000e+00	
3	4	9.700e-02	9.600e+00	
3	5	9.300e-02	8.700e+00	
3	6	1.010e-01	1.040e+01	
3	7	9.600e-02	9.300e+00	
3	8	1.030e-01	1.080e+01	

Calib. Block Num.	WaveLen Index	Absorption	Scattering	

4	1	1.000e-01	1.000e+01	
4	2	1.000e-01	1.000e+01	
4	3	1.000e-01	1.000e+01	
4	4	1.000e-01	1.000e+01	
4	5	1.000e-01	1.000e+01	
4	6	1.000e-01	1.000e+01	
4	7	1.000e-01	1.000e+01	
4	8	1.000e-01	1.000e+01	



#DATA BEGINS
time	group	step	mark	flag	A-AC1	A-AC2	A-AC3	A-AC4	A-AC5	A-AC6	A-AC7	A-AC8	A-DC1	A-DC2	A-DC3	A-DC4	A-DC5	A-DC6	A-DC7	A-DC8	A-Ph1	A-Ph2	A-Ph3	A-Ph4	A-Ph5	A-Ph6	A-Ph7	A-Ph8	aux-1	aux-2	aux-3	aux-4	digaux	

77082.633	1	1	0	768	3674.22	5.16008	3498.37	1648.35	487.761	4933.9	4.58475	5.47893	5529.51	62.6923	5086.55	2600.63	884.135	8597.05	55.0625	56.0769	10.326	240.317	186.410	189.177	194.882	185.177	79.817	315.556	8192	-8191	8192	8192	254	
77082.688	1	1	0	0	4658.6	4800.15	4136.94	3.42623	3519.01	1680.08	500.072	4989.95	6844.1	7841.33	6347.19	57.9231	5067.11	2615.97	894.788	8650.04	10.843	198.767	9.613	125.775	186.154	189.259	191.473	185.527	8192	-8191	8192	8192	254	
77082.734	1	1	0	0	4640.36	4826.84	4203.08	8.25781	3489.74	1635.8	500.609	4988.01	6802.83	7845.5	6445.77	58.6106	5080.7	2616.9	904.947	8559.33	9.987	198.291	8.995	187.564	185.424	189.604	190.733	185.893	8192	-8191	8192	8192	254	
77082.781	1	1	0	0	4566.45	4868.74	4376.97	8.03971	3498.15	1644.64	487.051	4995.11	6776.03	7879.42	6554.12	64.8654	5038.94	2601	873.553	8618.7	10.617	198.485	9.317	203.819	185.922	188.075	194.805	185.778	8192	-8191	8192	8192	254	
77082.852	1	1	0	0	4550.21	4853.32	4300.16	5.71618	3478.35	1642.3	511.725	4943.07	6781.23	7826.63	6550.25	59.8942	5056.1	2608.5	896.644	8594.01	10.627	198.375	10.013	274.248	186.006	189.758	192.737	186.231	8192	-8191	8192	8192	254	
77082.898	1	1	0	0	4625.59	4854.56	4312.91	6.30467	3499.33	1674.51	524.361	4901.47	6767.32	7821.71	6554.52	58.8365	5077.85	2608.77	910.312	8547.31	10.450	198.806	9.937	181.181	186.118	190.117	193.917	185.833	8192	-8191	8192	8192	254	
77082.945	1	1	0	0	4700.84	4802.72	4348.83	9.71707	3510.85	1613.32	498.194	4920.78	6834.59	7786.51	6599.32	57.4279	5074.96	2572.62	911.365	8572.04	9.744	198.775	9.240	188.253	185.374	189.498	191.308	185.784	8192	-8191	8192	8192	254	
77082.992	1	1	0	0	4578.51	4864.23	4241.14	10.7491	3478.32	1630.71	504.211	4977.96	6738.21	7831.85	6507.08	55.4856	5051.67	2603.56	905.625	8579.55	10.696	198.688	9.723	193.012	185.644	190.606	192.174	185.905	8192	-8191	8192	8192	254	
77083.047	1	1	0	0	4659.46	4879.27	4301.13	9.16012	3405.11	1641.07	497.114	4904.24	6836.62	7874.69	6548.75	55.7067	5021.99	2585.76	892.87	8563.3	10.087	198.572	9.050	171.006	185.872	189.143	192.388	185.344	8192	-8191	8192	8192	254	
77083.094	1	1	0	0	4606.79	4868.87	4365.09	2.95108	3515.68	1630.17	494.625	5030.91	6791.46	7844.13	6575.89	56.6779	5047.28	2615.88	880.909	8609.92	10.905	198.270	8.872	35.563	185.364	190.669	192.923	185.818	8192	-8191	8192	8192	254	
77083.141	1	1	0	0	4599.41	4835.69	4344.38	12.751	3534.28	1684.68	500.246	4986.02	6771.82	7766.58	6604.78	61.976	5098.01	2639.94	898.649	8606.72	11.154	199.031	9.246	210.275	185.529	188.607	193.250	185.912	8192	-8191	8192	8192	254	
77083.188	1	1	0	0	4591.31	4906.75	4344.83	8.83834	3491.82	1663.01	532.17	4915.15	6776.27	7810.61	6584.62	59.9038	5064.81	2598.12	910.505	8567.86	10.053	198.439	8.380	214.889	186.066	189.682	192.723	186.107	8192	-8191	8192	8192	254	
77083.258	1	1	0	0	4579.31	4865.66	4336.55	7.606	3445.35	1650.99	496.434	5033.15	6788.14	7797.49	6607.61	61.375	5025.26	2616	896.442	8661.16	10.436	197.986	9.083	224.894	186.221	188.854	189.305	186.196	8192	-8191	8192	8192	254	
77083.305	1	1	0	0	4581.12	4840.88	4351.53	2.20015	3508.01	1634.3	532.368	4918.03	6745.67	7791.22	6589.12	59.6106	5060.75	2572.38	903.471	8568.63	10.391	199.126	8.694	226.121	186.777	188.547	192.383	185.876	8192	-8191	8192	8192	254	
77083.359	1	1	0	0	4643.79	4861.49	4288.45	11.6248	3499.39	1661.23	520.134	4958.33	6821.39	7815.08	6553.62	60.4183	5041.78	2616.49	902.173	8565.32	10.961	198.432	8.677	215.807	185.213	188.533	193.954	186.484	8192	-8191	8192	8192	254	
77083.406	1	1	0	0	4573.29	4793.59	4300.98	5.9868	3486.79	1624.95	501.545	4950	6758.46	7776.48	6585.87	58.2019	5064.33	2584.34	883.899	8609.07	9.887	198.737	9.087	190.408	184.820	189.716	192.680	185.571	8192	-8191	8192	8192	254	
77083.406	1	1	0	0	4664.99	4872.41	4324.1	7.11576	3462.83	1639.24	485.156	4959.43	6847.67	7819.19	6605.34	58.6635	5043.26	2587.38	886.062	8583.78	11.083	198.737	8.879	182.296	185.366	188.222	195.463	184.761	8192	-8191	8192	8192	254	
77083.453	1	1	0	0	4637.47	4835.66	4395.27	8.66773	3483.7	1646.45	534.921	4978.42	6800.73	7809.57	6610.07	58.524	5063.72	2611.88	930.135	8611.89	10.180	199.095	8.907	273.668	185.643	188.174	193.396	185.562	8192	-8191	8192	8192	254	
77083.500	1	1	0	0	4605.65	4829.38	4393.39	11.8472	3480.84	1626.02	537.977	4956.68	6786.18	7797.35	6632.96	65.1635	5073.78	2584.74	906.245	8605.47	10.744	198.423	9.034	204.037	186.300	189.667	191.508	185.879	8192	-8191	8192	8192	254	
77083.547	1	1	0	0	4636.62	4860.32	4343.73	8.63623	3474.03	1680.73	507.065	4989.95	6810.89	7862.56	6578.29	63.9952	5057.62	2639.98	904.101	8616.57	10.323	198.159	8.911	199.131	185.217	188.874	193.138	185.606	8192	-8191	8192	8192	254	
77083.617	1	1	1	0	4646.55	4881.88	4354.88	7.39912	3546.58	1659.82	516.96	4900.84	6833.08	7844.2	6605.87	61.6731	5104.61	2598.21	895.49	8573.65	9.881	198.229	9.256	237.547	186.525	190.134	193.836	186.198	8192	-8191	8192	8192	254	
77083.672	1	1	0	0	4601.62	4790.02	4364.38	3.40672	3555.5	1629.7	499.914	4946.14	6783.91	7754.44	6615.72	59.8269	5069.46	2590.03	909.216	8584.66	10.182	198.768	9.542	196.660	186.388	188.835	191.081	185.236	8192	-8191	8192	8192	254	
77083.719	1	1	0	0	4558.14	4786.1	4407.95	4.0045	3445.91	1676.85	506.155	4939.03	6746.33	7797.61	6617.07	57.8413	5035.42	2620.11	899.562	8580.92	9.745	198.834	9.550	251.326	186.464	189.209	192.873	185.874	8192	-8191	8192	8192	254	
77083.766	1	1	0	0	4628.89	4749.88	4287.24	8.80381	3491.89	1619.07	476.817	4982.33	6782.25	7752.67	6570	62.899	5062.22	2560.12	878.712	8554.11	10.285	198.708	9.318	232.035	186.473	189.432	192.335	185.594	8192	-8191	8192	8192	254	
77083.812	1	1	0	0	4595.36	4768.52	4343.74	5.04916	3525.67	1628.36	488.938	4944	6775.71	7762.21	6610.42	62.0625	5085.38	2586.57	881.981	8607.32	10.124	199.158	9.365	245.774	185.594	187.953	194.094	186.263	8192	-8191	8192	8192	254	
77083.859	1	1	0	0	4604.23	4835.12	4407.94	3.499	3549.57	1631.99	492.822	5029.6	6785.63	7804.42	6606.68	58.3702	5119.23	2580.62	894.644	8590.74	10.259	198.270	8.094	250.011	185.417	188.077	194.942	185.979	8192	-8191	8192	8192	254	
77083.906	1	1	0	0	4595.03	4885.56	4374	9.21448	3517.96	1613.71	501.075	4888.4	6781.07	7823.96	6630.2	57.5192	5097.62	2581.01	895.538	8556.16	10.085	198.770	8.225	201.833	185.530	189.780	192.477	185.429	8192	-8191	8192	8192	254	
77083.953	1	1	0	0	4551.91	4844.84	4403.7	6.52561	3487.11	1669.78	528.279	4918.38	6762.17	7786.1	6646.87	58.9327	5028.88	2623.3	902.712	8583.28	9.797	198.790	8.810	191.525	185.291	189.221	190.233	186.764	8192	-8191	8192	8192	254	
77084.023	1	1	0	0	4640.88	4814.38	4340.84	9.44745	3446.91	1626.54	503.278	4937.05	6794.5	7785.99	6625.37	63.1394	5056.65	2588.13	901.913	8604.66	10.619	198.278	7.659	150.342	185.886	190.092	188.727	185.917	8192	-8191	8192	8192	254	
77084.078	1	1	0	0	4686.84	4841.42	4347.52	8.35349	3513.17	1609.34	482.877	4914.15	6813.85	7819.17	6608.49	67.9038	5111.6	2602.57	884.236	8499.55	10.332	199.452	9.165	186.667	185.739	189.361	190.508	186.607	8192	-8191	8192	8192	254	
77084.125	1	1	0	0	4593.93	4803.41	4354.39	3.70539	3524.5	1633.74	503.43	4954.06	6771.92	7803.85	6602.52	57.8365	5046.84	2600.88	900.019	8556.14	10.073	198.698	8.988	271.019	185.964	189.206	193.798	185.006	8192	-8191	8192	8192	254	
77084.172	1	1	0	0	4604.58	4807.09	4364.31	1.64152	3509.15	1671.33	490.905	4871.55	6776.13	7809.5	6618.32	60.0096	5075.14	2599.4	885.654	8533.71	10.473	198.349	7.990	298.152	185.653	190.113	193.600	185.812	8192	-8191	8192	8192	254	
77084.172	1	1	0	0	4592.8	4756.18	4313.85	4.47475	3527.36	1623.9	520.812	4975.76	6796.07	7778.47	6584.67	69.0962	5078.72	2593.59	895.846	8592.11	10.349	198.360	9.338	213.614	186.953	188.511	192.165	185.452	8192	-8191	8192	8192	254	
77084.219	1	1	0	0	4667.4	4882.22	4403.45	7.46441	3497.9	1649.26	503.009	4923.89	6842.23	7818.1	6662.89	56.8077	5075.83	2614.87	908.346	8566.34	9.807	198.279	9.052	160.983	186.100	190.535	190.703	185.912	8192	-8191	8192	8192	254	
77084.266	1	1	0	0	4644.25	4845.21	4345.45	5.87978	3450.19	1653.94	516.151	4925.31	6811.41	7838.27	6615.89	63.3462	5032.04	2599.41	919.111	8591.38	10.563	198.932	9.262	179.851	185.696	189.746	193.734	185.976	8192	-8191	8192	8192	254	
77084.312	1	1	0	0	4585.8	4853.71	4332.7	10.7929	3484.15	1602.58	503.294	4858.02	6775.3	7787.58	6589.29	55.375	5086.2	2586.57	888.25	8509.74	10.094	198.602	9.226	220.241	185.673	188.866	190.715	186.399	8192	-8191	8192	8192	254	
77084.391	1	1	0	0	4605.79	4731.12	4353.86	10.7507	3547.96	1595.45	496.123	4997.01	6777.01	7760.98	6632.22	63.2644	5074.61	2569.68	903.327	8613.64	10.138	198.347	9.176	180.927	185.170	188.160	192.124	186.085	8192	-8191	8192	8192	254	
77084.438	1	1	0	0	4642	4931.57	4263.12	2.3941	3458.39	1668.19	480.955	4986.85	6796.65	7844.1	6545.96	60.9183	5050.12	2605.13	882.808	8588.79	10.936	199.247	8.899	212.343	185.562	189.144	191.785	185.693	8192	-8191	8192	8192	254	
77084.484	1	1	0	0	4637.27	4907.9	4291.91	15.0263	3510.1	1647.96	481.429	4907.5	6812.46	7837.18	6584.47	62.1971	5078.52	2616.11	904.981	8585.53	10.584	198.861	9.239	183.110	184.972	189.424	192.257	185.816	8192	-8191	8192	8192	254	
77084.531	1	1	0	0	4609.78	4815.64	4323.46	5.58145	3416.26	1641.87	505.36	4974.84	6804.05	7825.59	6554.68	59.1971	4993	2577.79	896.317	8577.57	10.932	198.604	8.912	216.321	186.434	188.047	194.564	185.585	8192	-8191	8192	8192	254	
77084.578	1	1	0	0	4619.46	4859.75	4358.39	8.89918	3456.36	1662.32	526.305	5018.5	6781.77	7811.69	6625.49	62.3077	5046.65	2608.27	914.798	8631.48	9.839	197.854	8.840	242.455	186.259	189.095	191.256	185.967	8192	-8191	8192	8192	254	
77084.625	1	1	0	0	4603.48	4749.72	4369.25	7.42693	3438.45	1597.71	521.611	4961.87	6802.83	7772.99	6603.37	64.1635	5054.04	2572.3	898.447	8602.07	10.422	197.811	8.784	179.193	186.047	189.464	193.680	186.603	8192	-8191	8192	8192	254	
77084.703	1	1	0	0	4621.28	4831.17	4345.64	7.5315	3468.91	1594.18	516.638	4989.24	6809.87	7802.7	6606.33	55.0433	5023	2572	920.101	8579.25	9.815	198.103	9.099	171.020	185.357	189.905	190.789	185.406	8192	-8191	8192	8192	254	
77084.750	1	1	0	0	4594.56	4851.38	4411.93	1.31706	3453.45	1654.08	520.34	4933.45	6771.46	7779.65	6634.06	57.0385	5055.08	2616.26	894.755	8550.78	10.591	198.702	8.958	88.578	185.232	188.988	190.769	186.275	8192	-8191	8192	8192	254	
77084.797	1	1	0	0	4594.33	4771.45	4308.01	6.02189	3431.12	1598.22	493.085	5046.52	6754.49	7762.59	6566.34	61.1587	5027.52	2576.69	896.279	8617.12	10.179	198.591	8.818	209.459	185.799	189.257	193.186	185.261	8192	-8191	8192	8192	254	
77084.844	1	1	0	0	4560.96	4852.74	4276.9	11.6391	3535.59	1657.08	505.357	4982.81	6775.44	7843.55	6572.71	57.9087	5082.69	2608.84	900.986	8617.42	10.693	200.040	9.726	178.322	185.304	187.877	193.117	186.236	8192	-8191	8192	8192	254	
77084.891	1	1	0	0	4670.44	4806.42	4368.42	9.1149	3491.7	1677.25	516.978	4944.01	6815.96	7790.56	6609.69	60.4327	5066.76	2610.89	910.976	8559.58	10.009	198.669	8.621	217.772	185.880	189.507	193.808	186.747	8192	-8191	8192	8192	254	
77084.938	1	1	0	0	4587.79	4759.87	4344.92	11.027	3536.02	1624.43	506.918	4903.82	6767.23	7763.13	6584.27	60.4567	5071.8	2591.1	898.591	8551.7	10.722	197.928	8.588	230.170	186.258	188.935	192.370	185.783	8192	-8191	8192	8192	254	
77084.938	1	1	0	0	4613.65	4774.14	4291.94	10.2337	3450.36	1633.58	495.9	4905.84	6816.42	7784.93	6565.66	61.4712	5049.99	2611.97	891.514	8557.6	10.364	198.435	9.158	198.064	185.275	188.913	193.059	185.655	8192	-8191	8192	8192	254	
77084.984	1	1	0	0	4573.42	4814.81	4373	4.44006	3461.08	1629.2	486.933	4963.03	6777.15	7813.03	6629.33	63.7596	5035.76	2574.37	864.928	8609.13	11.122	199.493	8.748	258.695	185.103	189.651	191.991	186.128	8192	-8191	8192	8192	254	
77085.031	1	1	0	0	4638.07	4831.12	4341.82	8.03517	3450.69	1607.78	515.704	4892.16	6806.2	7802.38	6566.5	61.2788	5043.64	2570.72	895.043	8550.91	10.248	198.650	8.469	166.186	186.209	189.700	189.429	186.592	8192	-8191	8192	8192	254	
77085.086	1	1	0	0	4609.6	4891.55	4373.41	5.71233	3467.3	1652.09	515.406	4900.61	6826.23	7860.27	6635.32	54.3846	5064.87	2587.36	899.529	8542.3	10.267	199.233	9.074	197.007	185.930	188.663	195.284	186.355	8192	-8191	8192	8192	254	
77085.133	1	1	0	0	4624.98	4807.83	4319.54	14.1172	3487.32	1630.26	493.186	4899.43	6793.42	7796.83	6607.29	58.7163	5059.53	2580.51	897.452	8549.53	10.087	199.039	8.852	182.858	185.058	189.884	194.141	185.164	8192	-8191	8192	8192	254	
77085.180	1	1	0	0	4624.59	4909.33	4311.61	11.1846	3492.71	1624.22	489.734	4879.41	6771.39	7819.1	6600.44	61.8029	5080.9	2581.92	872.889	8548.1	9.903	198.101	8.917	158.993	185.456	188.938	193.962	186.249	8192	-8191	8192	8192	254	
77085.250	1	1	0	0	4623.01	4929.97	4381.14	2.98404	3492.14	1638.93	519.613	4946.64	6797.3	7866.88	6654.25	61.4423	5064.57	2601.16	898.312	8563.8	10.224	198.696	9.086	194.632	185.527	189.074	191.452	185.581	8192	-8191	8192	8192	254	
77085.297	1	1	0	0	4608.94	4916.68	4383.69	6.24368	3483.54	1605.85	490.074	4869.36	6786	7859.78	6642.82	58.1058	5039.96	2599.38	881.639	8503.54	10.508	199.038	8.739	221.783	185.593	190.129	195.559	185.942	8192	-8191	8192	8192	254	
77085.352	1	1	0	0	4566.53	4805.26	4313.11	2.87579	3508.01	1630.06	505.73	4948.38	6757.58	7820.12	6593.25	60.1779	5056	2598.12	888.933	8578.3	10.231	198.458	9.137	125.200	186.708	188.519	191.378	186.425	8192	-8191	8192	8192	254	
77085.398	1	1	0	0	4576.68	4838.96	4288.74	4.70209	3534.91	1649.21	483.06	4984.98	6737.69	7806.78	6571.17	61.1058	5053.78	2596.39	888.125	8634.66	9.993	198.345	9.171	178.364	185.482	188.553	192.801	186.080	8192	-8191	8192	8192	254	
77085.445	1	1	0	0	4581.82	4911.7	4333.25	5.91169	3488.36	1621.07	522.613	4935.74	6739.48	7823.19	6589.39	59.4904	5067.52	2591.46	910.63	8571.52	10.674	198.117	8.786	164.353	185.855	189.411	191.278	186.232	8192	-8191	8192	8192	254	
77085.492	1	1	0	0	4652.86	4870.55	4290.44	6.52647	3460.18	1644.79	521.269	4963.55	6796.58	7827.69	6545.42	62.2067	5040.47	2597.38	893.798	8599.74	10.214	198.551	8.847	212.070	185.853	188.947	192.761	185.820	8192	-8191	8192	8192	254	
77085.562	1	1	0	0	4599.79	4812.69	4335.65	2.55489	3534.96	1603.03	495.038	4966.88	6764.66	7747.35	6609.06	60.0385	5065.86	2560.36	889.635	8566.84	11.061	198.990	9.681	237.137	186.004	189.723	192.352	186.123	8192	-8191	8192	8192	254	
77085.609	1	1	0	0	4604.24	4861.52	4341.73	18.6107	3499.04	1650.15	513.646	4928.02	6776.17	7873.76	6565.98	59.226	5064.09	2584.94	913.337	8624.76	10.629	197.854	8.916	227.032	185.614	189.600	191.866	185.324	8192	-8191	8192	8192	254	
77085.656	1	1	0	0	4596.09	4756.37	4357.79	7.68737	3528.55	1637.73	505.41	4938.65	6767.25	7784.38	6585.67	60.8029	5077.62	2603.46	902.486	8547.36	10.473	198.652	8.652	168.892	185.479	187.319	192.602	186.397	8192	-8191	8192	8192	254	
77085.711	1	1	0	0	4569.3	4796.46	4352.55	6.62696	3551.51	1628.38	491.238	5001.99	6778.61	7740.24	6578.96	62.4279	5125.28	2583.29	885.048	8589.73	9.931	198.469	9.722	152.944	185.701	190.419	192.656	185.586	8192	-8191	8192	8192	254	
77085.711	1	1	0	0	4538.74	4860.85	4324.86	5.36985	3532.63	1592.73	535.11	4910.28	6730.39	7856.9	6569.5	62.4712	5082.81	2574.67	913.346	8557.22	10.098	199.493	8.974	221.933	185.567	189.732	192.130	185.751	8192	-8191	8192	8192	254	
77085.758	1	1	0	0	4612.67	4762.82	4374.29	11.6806	3499.91	1599.2	502.658	4951.02	6814.35	7771	6595.8	57.9567	5045.47	2564.12	884.889	8579.04	10.281	198.516	9.384	192.290	185.063	188.857	190.832	185.957	8192	-8191	8192	8192	254	
77085.805	1	1	0	0	4583.96	4812.72	4387.04	7.44189	3529.41	1564.11	496.376	4963.2	6815.32	7777.78	6623.78	62.4183	5093.27	2546.93	900.38	8559.4	10.532	198.607	8.907	248.580	185.585	188.582	191.978	186.039	8192	-8191	8192	8192	254	
77085.852	1	1	0	0	4493.37	4853.11	4285.09	8.05003	3533.05	1623.37	520.994	4959.14	6745.56	7804.53	6602.12	64.5144	5109.84	2588.75	909.577	8595.76	10.185	198.108	8.833	234.996	186.504	188.890	193.314	186.188	8192	-8191	8192	8192	254	
77085.922	1	1	0	0	4598.71	4771.86	4366.55	9.3823	3522.19	1683.79	490.312	4915.73	6758.62	7792.04	6627.16	64.3558	5088.6	2614.93	882.606	8564.74	10.591	198.773	9.037	174.734	186.262	189.440	191.624	185.673	8192	-8191	8192	8192	254	
77085.969	1	1	0	0	4566.59	4836.7	4411.2	0.627042	3428.22	1593.18	515.652	4965.04	6753.04	7771.91	6624.16	57.774	5027.65	2589.96	900.351	8562.01	10.958	199.132	9.041	206.195	185.796	188.736	193.572	185.593	8192	-8191	8192	8192	254	
77086.023	1	1	0	0	4633.36	4829.65	4312.98	9.39907	3488.88	1658.01	474.88	4896.78	6786.25	7812.8	6566.51	57.6442	5061.88	2623.34	884.13	8508.67	10.438	198.449	8.603	190.914	185.806	188.758	194.034	186.183	8192	-8191	8192	8192	254	
77086.070	1	1	0	0	4639.18	4749.71	4306.27	9.71877	3467.65	1640.76	483.928	4929.42	6793.26	7741.47	6567.65	61.726	5043.2	2575.75	908.659	8530.67	10.652	199.044	9.219	160.263	185.900	190.002	193.429	186.328	8192	-8191	8192	8192	254	
77086.117	1	1	0	0	4660.51	4817.4	4370.29	3.60472	3498.43	1647.59	494.382	4933.4	6791.93	7789.36	6612.95	59.4567	5048	2600.81	897.976	8568.95	10.867	198.631	9.144	232.175	185.001	189.991	191.561	185.528	8192	-8191	8192	8192	254	
77086.164	1	1	0	0	4580.42	4812.36	4298.23	5.57085	3516.86	1617.29	509.256	4924.04	6769.83	7758	6584.48	62.4904	5081.26	2604.83	895.154	8517.95	10.686	198.950	8.718	168.605	185.453	189.229	192.351	185.945	8192	-8191	8192	8192	254	
77086.234	1	1	0	0	4613.94	4843.02	4303.06	4.10748	3577.92	1636.86	503.07	4958.11	6780.3	7779.93	6573.52	61.5865	5138.17	2595.69	905.139	8534.03	10.976	199.394	8.254	192.479	186.234	188.514	191.057	185.443	8192	-8191	8192	8192	254	
77086.281	1	1	0	0	4592.55	4877.94	4271.45	5.41084	3433.54	1600.57	506.517	4975.72	6750.64	7827.42	6573.74	71.3413	5027.9	2559.14	906.957	8593.28	10.294	198.999	9.335	187.997	186.028	188.640	194.845	185.742	8192	-8191	8192	8192	254	
77086.328	1	1	0	0	4589.87	4847.62	4320.96	2.05348	3491.11	1644.19	515.235	4941.52	6782.27	7803.92	6585.32	83.8606	5088.09	2616.14	912.947	8603.25	10.137	198.540	8.111	174.076	186.198	189.285	194.377	186.557	8192	-8191	8192	8192	254	
77086.383	1	1	0	0	4575.51	4772.04	4377.68	13.1592	3518.22	1651.66	481.391	4918.56	6802.87	7755.57	6628.53	81.0865	5106.43	2624.36	919.894	8578.24	9.890	198.888	8.810	182.035	186.114	189.760	192.517	186.297	8192	-8191	8192	8192	254	
77086.430	1	1	0	0	4571.81	4787.19	4332.03	3.1198	3465.21	1593.9	498.544	4970.91	6777.35	7807.52	6600.98	93.3221	5076.89	2617.35	902.981	8618.4	10.440	198.419	8.486	221.746	185.874	188.728	193.447	185.465	8192	-8191	8192	8192	254	
77086.477	1	1	0	0	4506.44	4917.19	4309.84	5.12242	3542.55	1664.85	499.443	4896.4	6740.98	7907.19	6582.1	86.3846	5122.76	2643.96	908.466	8596.13	11.136	199.221	9.545	234.086	185.635	190.811	194.882	186.400	8192	-8191	8192	8192	254	
77086.477	1	1	0	0	4596.03	4871.64	4299.13	4.67474	3471.34	1599.54	503.955	4942.82	6788.35	7838.92	6609.94	96.024	5106.68	2606.73	922.817	8595.4	10.578	199.376	8.603	184.444	185.601	190.440	190.081	185.206	8192	-8191	8192	8192	254	
77086.523	1	1	0	0	4615.02	4863.43	4364.47	6.02921	3522.16	1610.54	524.205	4948.96	6820.22	7841.3	6649.17	94.9567	5081.83	2613.51	936.899	8619.97	10.547	199.151	9.009	106.447	185.625	189.190	192.009	185.705	8192	-8191	8192	8192	254	
77086.594	1	1	0	0	4596.64	4822.29	4260.92	7.34083	3487.49	1622.43	530.377	4913.13	6793.95	7833.88	6608.32	91.3462	5097.14	2629.38	939.24	8601.81	10.534	199.002	9.081	228.714	184.811	189.840	193.387	186.284	8192	-8191	8192	8192	254	
77086.641	1	1	0	0	4582.16	4948.54	4337.26	9.32753	3548.02	1639.23	505.725	4987.72	6791.28	7909.07	6611.54	83.0577	5084.23	2614.01	913.88	8606.97	10.682	197.718	9.623	190.418	186.277	190.430	191.560	186.201	8192	-8191	8192	8192	254	
77086.695	1	1	0	0	4589.04	4850.12	4295.4	13.6547	3486.78	1679.04	488.542	4949.09	6748	7806.82	6568.75	77.3317	5053.85	2634.5	913.332	8568.87	10.975	198.381	9.666	170.769	186.062	188.595	193.623	186.835	8192	-8191	8192	8192	254	
77086.742	1	1	0	0	4565.79	4840.01	4289.14	2.11729	3502.66	1641.48	495.623	4981.55	6790.69	7803.46	6589.15	74.6538	5090.74	2609.9	894.822	8625.68	9.412	198.764	8.789	163.161	185.667	190.174	192.835	186.500	8192	-8191	8192	8192	254	
77086.789	1	1	0	0	4619.8	4797.83	4316.62	10.4928	3532.77	1593.92	478.948	4897.12	6829.17	7777.11	6604.88	90.0433	5080.03	2593.9	894.923	8558.01	9.587	198.935	9.447	194.363	185.603	190.360	192.802	186.876	8192	-8191	8192	8192	254	
77086.836	1	1	0	0	4508.48	4856.62	4351.21	6.12291	3456.73	1661.24	499.427	4889.77	6763.56	7795.99	6646.88	72.6106	5053.38	2611.24	908.144	8533.22	9.882	198.287	9.005	251.405	185.714	189.985	190.729	185.514	8192	-8191	8192	8192	254	
77086.883	1	1	0	0	4586.63	4806.16	4358.4	4.89982	3580.81	1626.72	516.86	4959.05	6794.2	7792.33	6592.6	56.6635	5123.98	2581.01	899.288	8586.5	10.094	198.485	8.643	163.653	185.772	188.940	194.746	185.580	8192	-8191	8192	8192	254	
77086.930	1	1	0	0	4585.6	4818.21	4355.7	7.75745	3510.05	1632.03	502.211	4938.96	6789.82	7760.8	6616.57	57.3365	5083.86	2577.58	897.894	8610.02	10.499	198.453	9.010	243.442	185.274	189.821	192.607	186.113	8192	-8191	8192	8192	254	
77086.977	1	1	0	0	4546.6	4786.6	4333.99	5.58327	3556.83	1665.17	521.095	4913.87	6769.62	7777.7	6596.76	62.524	5077.3	2597.08	889.236	8574.32	11.064	198.574	9.791	174.031	186.421	188.897	191.460	185.793	8192	-8191	8192	8192	254	
77087.031	1	1	0	0	4668.27	4799.43	4371.04	14.4786	3473.58	1630.61	497.114	4930.57	6777.18	7796.13	6621.25	61.7644	5061.65	2573.56	904.635	8572.08	10.498	198.817	8.163	206.140	186.014	189.709	193.548	186.624	8192	-8191	8192	8192	254	
77087.102	1	1	2	0	4580.07	4771.97	4294.56	8.00239	3428.42	1609.87	494.456	4989.04	6781.55	7778.58	6549.93	62.1106	5011	2600.06	888.832	8584.88	10.416	198.294	8.498	169.497	185.774	189.294	193.226	185.806	8192	-8191	8192	8192	254	
77087.148	1	1	0	0	4619.08	4824.19	4346.98	4.58055	3489.28	1643.84	498.998	5028.11	6803.79	7812.5	6596.02	71.4904	5055.43	2610.36	918.034	8607.96	10.099	199.459	8.681	218.158	185.442	189.440	191.339	185.915	8192	-8191	8192	8192	254	
77087.195	1	1	0	0	4549.63	4788.22	4301.46	6.47036	3446.68	1639.28	520.55	4978.24	6749.23	7802.66	6583.13	104.202	5088.71	2629.92	954.933	8606.75	10.147	198.372	8.930	235.144	185.934	189.023	192.369	186.135	8192	-8191	8192	8192	254	
77087.242	1	1	0	0	4574.54	4764	4345.01	8.01232	3523.12	1650.04	500.401	4961.14	6797.97	7777.7	6646.56	120.135	5134.97	2641.1	932.476	8624.12	10.596	198.657	9.971	245.042	185.591	189.310	191.344	185.598	8192	-8191	8192	8192	254	
77087.242	1	1	0	0	4563.03	4838.71	4266.14	6.69613	3509.98	1651.99	488.051	4897.32	6807.61	7818.04	6630.18	117.909	5113.34	2666.42	945.505	8561.69	10.888	198.784	8.592	102.634	185.408	189.003	192.292	185.649	8192	-8191	8192	8192	254	
77087.289	1	1	0	0	4627.01	4821.56	4267.14	13.3275	3508.04	1663.4	484.287	4985.36	6807.47	7829.12	6616.58	117.76	5168.87	2677.93	939.409	8668.99	10.472	199.016	8.812	194.580	186.004	189.330	193.315	185.806	8192	-8191	8192	8192	254	
77087.344	1	1	0	0	4602.93	4853.01	4383.2	7.62579	3479.41	1647.82	497.179	4975.82	6798.38	7880.7	6684.56	123.236	5085.71	2633.93	953.644	8653.63	10.652	199.161	9.730	161.133	186.413	188.993	190.253	186.475	8192	-8191	8192	8192	254	
77087.391	1	1	0	0	4575.28	4849.43	4307.22	15.881	3454.13	1603.06	498.417	4945.69	6793.64	7842.1	6654.09	127.764	5101.62	2640.88	965.394	8657.36	10.147	198.352	8.945	145.354	185.293	189.827	193.111	186.054	8192	-8191	8192	8192	254	
77087.461	1	1	0	0	4605.87	4845.81	4342.61	6.69197	3506.02	1639.11	499.854	4972.67	6853.05	7852.72	6699.75	141.385	5126	2682.73	993.495	8717.14	10.306	198.383	9.287	188.883	185.836	190.262	195.255	185.677	8192	-8191	8192	8192	254	
77087.508	1	1	0	0	4577.59	4882.07	4270.78	11.8462	3514.9	1605.95	490.576	4923.49	6868.52	7898.3	6646.1	153.793	5146.19	2675.8	958.481	8670.1	10.673	198.654	8.822	294.947	186.022	188.786	192.708	186.220	8192	-8191	8192	8192	254	
77087.555	1	1	0	0	4560.09	4799.75	4271.43	3.05363	3527.17	1620.81	502.384	4892.59	6817.93	7801.68	6643.01	144.077	5177.68	2690.49	980.394	8625.25	10.530	199.249	8.094	148.079	185.029	188.633	192.514	186.589	8192	-8191	8192	8192	254	
77087.602	1	1	0	0	4596.63	4812.5	4394.76	9.79701	3593.51	1610.01	519.428	4972.01	6871.28	7843.55	6717	134.889	5156.77	2629.14	970.24	8612.5	9.673	198.491	9.599	173.757	186.553	189.615	191.940	186.824	8192	-8191	8192	8192	254	
77087.648	1	1	0	0	4574.72	4830.87	4389.98	8.49988	3536.06	1628.8	499.181	4978.77	6856.65	7854.24	6647	112.553	5159.36	2637.04	966.062	8630.97	9.875	198.503	9.155	200.650	185.190	189.656	195.026	186.053	8192	-8191	8192	8192	254	
77087.703	1	1	0	0	4627.97	4860.64	4306.33	9.21311	3518.42	1623.85	507.91	4913.35	6851.88	7862.86	6635.8	113.688	5124.78	2631.81	945.082	8621.77	10.493	199.024	8.929	249.693	184.910	190.037	193.245	185.864	8192	-8191	8192	8192	254	
77087.773	1	1	0	0	4605.37	4814.94	4387.23	16.4141	3467.13	1647.36	503.163	4909.75	6839.38	7847.18	6661.22	116.365	5112.77	2651.2	934.639	8579.27	11.096	198.631	8.741	213.998	185.775	189.387	193.032	185.501	8192	-8191	8192	8192	254	
77087.820	1	1	0	0	4553.89	4716.24	4321.45	7.65865	3521.93	1646.54	507.814	4893.59	6785.81	7752.29	6635.63	120.207	5137.29	2667.74	948.856	8551.57	10.943	198.057	9.063	151.074	185.647	189.000	193.213	185.933	8192	-8191	8192	8192	254	
77087.867	1	1	0	0	4548.58	4865.43	4270.5	3.80081	3556.57	1670.2	525.944	5013.12	6815.18	7890.39	6637.61	116.24	5126.34	2668.61	969.957	8676.52	11.046	199.202	8.388	341.768	185.577	189.182	193.292	185.556	8192	-8191	8192	8192	254	
77087.914	1	1	0	0	4566.33	4783.29	4377.41	12.9841	3483.17	1654.64	510.714	4979.62	6792.92	7859.46	6629.61	117.365	5119.98	2652.38	960.389	8642.07	10.358	198.880	9.121	135.799	185.161	187.932	191.719	185.605	8192	-8191	8192	8192	254	
77087.961	1	1	0	0	4571.9	4713.94	4359.81	10.5009	3483.45	1642.06	533.083	4945.25	6791.17	7809.25	6623.86	107.601	5096.05	2648.06	977.784	8641.04	10.828	198.767	9.390	162.430	185.689	187.820	194.955	185.779	8192	-8191	8192	8192	254	
77088.016	1	1	0	0	4633.88	4888.3	4369.21	5.74018	3487.99	1617.95	485.104	4974.39	6829.51	7934.58	6653.66	121.317	5105.06	2633.76	948.058	8623.9	10.454	198.548	9.079	212.693	185.830	188.227	190.019	186.563	8192	-8191	8192	8192	254	
77088.016	1	1	0	0	4526.21	4780.01	4360.48	4.59412	3521.98	1628.38	515.854	4946.79	6808.07	7829.84	6677.25	121.663	5157.37	2666.27	967.731	8649.75	9.977	198.809	9.113	136.428	184.880	188.877	194.140	185.841	8192	-8191	8192	8192	254	
77088.062	1	1	0	0	4615.55	4810.99	4362.78	8.96184	3487.63	1658.15	525.052	4922.96	6860.43	7828.12	6675.83	165.865	5137.71	2733.18	1032.47	8689.52	10.487	198.499	8.715	183.847	184.681	189.661	191.624	185.601	8192	-8191	8192	8192	254	
77088.133	1	1	0	0	4620.89	4828.11	4309.34	18.4933	3522.54	1618.2	463.089	4905.57	6871.66	7937.72	6721.21	221.596	5241.4	2757.79	1056.18	8779.31	10.529	198.805	8.723	180.710	185.681	189.495	194.654	185.893	8192	-8191	8192	8192	254	
77088.180	1	1	0	0	4525.45	4817.65	4316.84	10.8303	3535.36	1572.14	500.187	4974.34	6928.5	7983.23	6786.91	272.019	5288.02	2774.4	1140.57	8818.6	10.220	198.722	9.089	162.199	185.467	188.479	191.752	186.230	8192	-8191	8192	8192	254	
77088.227	1	1	0	0	4606.55	4821.44	4347.67	17.7602	3552.27	1676.25	505.941	4926.37	7018.11	8087.16	6854.7	318.101	5349.01	2890.62	1199.78	8806.88	10.926	198.881	8.276	185.489	185.485	189.044	192.217	185.320	8192	-8191	8192	8192	254	
77088.273	1	1	0	0	4534.5	4792.9	4362.41	15.0866	3502.7	1611.97	509.324	4963.94	7062.77	8068.39	6920.22	362.082	5386.24	2869.17	1204.43	8905.08	10.384	197.796	8.917	69.141	185.959	189.028	194.010	186.079	8192	-8191	8192	8192	254	
77088.320	1	1	0	0	4596.84	4817.25	4340.01	17.8746	3482.73	1620.48	531.108	4939.01	7075.44	8116.15	6889.98	358.37	5349.08	2890.67	1192.94	8868.25	10.513	198.869	8.892	215.529	185.347	188.692	192.455	185.761	8192	-8191	8192	8192	254	
77088.375	1	1	0	0	4653.35	4875.71	4320.93	9.55208	3475.6	1570.35	506.532	4781.37	7085.51	8130.16	6890.31	345.543	5304.94	2823.95	1177.92	8733.01	9.901	198.446	9.236	206.227	185.168	189.090	190.160	185.274	8192	-8191	8192	8192	254	
77088.422	1	1	0	0	4559.48	4770.6	4260.61	13.7401	3462.72	1597.11	489.053	4845.15	6956.78	7985.61	6766.11	361.144	5298.35	2832.14	1166.85	8719.56	10.556	198.897	9.544	193.263	185.850	189.890	194.564	185.833	8192	-8191	8192	8192	254	
77088.469	1	1	0	0	4435.53	4748.52	4305.87	15.8001	3448.7	1623.86	519.592	4934.77	6860.71	7916.76	6754.15	363.543	5307.23	2864.99	1194.95	8890.91	10.421	198.730	8.939	124.407	185.930	190.870	193.703	185.829	8192	-8191	8192	8192	254	
77088.539	1	1	0	0	4700.75	4777.25	4357.76	13.7687	3462.49	1601.82	524.425	4888.57	7169.09	8082.18	6922.53	366.49	5328.41	2840.03	1188.14	8752.62	10.234	198.976	9.101	273.582	185.872	189.306	193.425	185.733	8192	-8191	8192	8192	254	
77088.586	1	1	0	0	4481.83	4692.32	4256.82	15.5706	3295.43	1469.53	420.229	3669.39	6950.2	7910.73	6759.06	364.375	5118.38	2675.75	1053.58	6650.02	10.247	199.000	10.066	171.749	186.295	188.299	189.368	186.372	8192	-8191	8192	8192	254	
77088.633	1	1	0	0	2508.67	1632.72	1075.35	6.52431	349.493	97.657	25.2393	138.253	3901.99	2886.52	1805.38	174.995	675.995	323.303	200.279	406.529	9.970	198.567	8.758	266.119	183.500	191.266	184.028	181.957	8192	-8191	8192	8192	254	
77088.688	1	1	0	0	38.0045	20.4889	27.6504	12.43	7.65881	3.65805	6.63376	9.39773	227.601	197.034	193.149	171.803	178.173	164.49	168.125	200.827	11.757	203.222	4.574	171.638	123.831	353.857	252.665	212.547	8192	-8191	8192	8192	254	
77088.734	1	1	0	0	16.0517	10.2706	70.0922	47.0532	119.72	90.8881	85.8076	39.8388	351.418	1360.91	4715.88	8518.3	14366.6	12868.9	12779.5	13178.4	98.052	160.767	133.375	182.056	10.046	241.235	119.402	348.759	8192	-8191	8192	8192	254	
77088.781	1	1	0	0	28.7776	63.1179	45.9056	5.83638	117.981	16.7572	103.555	116.58	13305.5	13570.5	13622.4	13750.4	14046.1	14487	15052.4	16089.7	341.646	219.706	163.412	185.978	125.092	235.102	14.956	202.605	8192	-8191	8192	8192	254	
77088.781	1	1	0	0	54.6632	93.5451	29.6937	85.9332	52.9847	60.8194	49.6348	59.309	14991.2	14647.4	13373.8	13809.2	13905.6	11992.4	11759.8	12432.2	63.567	25.854	164.811	277.469	229.877	246.249	56.288	3.091	8192	-8191	8192	8192	254	
77088.828	1	1	0	0	109.984	59.5093	7.88064	60.6956	59.1916	32.2389	186.483	55.5344	11386.5	7029.41	4352.84	5897.03	11498.2	12446.4	13713.8	15949.6	288.680	248.829	144.501	130.818	228.195	269.993	119.329	324.161	8192	-8191	8192	8192	254	
77088.898	1	1	0	0	50.5204	74.3488	59.095	71.432	102.538	64.485	92.765	36.9964	14618.2	14147.6	13527.8	13124.9	12989.1	12991.3	12888.1	12872.8	24.564	291.451	293.058	130.070	101.681	352.640	35.814	18.798	8192	-8191	8192	8192	254	
77088.945	1	1	0	0	121.777	102.281	37.7149	59.3649	44.5499	24.6992	44.8421	95.204	13525.5	14229.4	14326.3	15385.2	16044.5	13699.1	11854	12232.8	9.908	163.713	122.995	357.355	85.297	169.516	85.483	65.119	8192	-8191	8192	8192	254	
77088.992	1	1	0	0	66.3667	88.788	88.4449	70.3572	33.4991	27.3659	13.9804	8.29342	13014.1	13004.3	11005.1	8224.5	5568.74	2492.76	865.394	709.793	66.490	124.180	305.247	346.762	279.225	320.776	258.544	237.578	8192	-8191	8192	8192	254	
77089.047	1	1	0	0	12.7966	6.20936	13.0721	1.45065	11.8527	21.4276	23.1156	13.9672	706.043	706.817	705.279	699.534	675.832	665.471	664.933	696.418	45.450	31.302	39.179	331.990	43.633	281.901	186.814	191.507	8192	-8191	8192	8192	254	
77089.094	1	1	0	0	14.2217	25.2568	3.98867	5.06438	7.58108	11.2912	6.59831	11.7178	682.091	692.505	714.784	721.288	724.245	720.726	711.37	742.755	301.003	334.571	239.651	65.911	216.384	72.392	131.395	213.735	8192	-8191	8192	8192	254	
77089.141	1	1	0	0	10.7174	26.7318	9.17558	20.1046	13.3272	3.0929	17.1901	5.57001	769.909	761.418	772.832	778.966	769.337	776.25	780.851	796.264	153.038	152.831	61.355	298.559	326.952	5.702	123.136	137.368	8192	-8191	8192	8192	254	
77089.188	1	1	0	0	12.5054	12.8156	18.8768	7.71455	11.398	19.9458	31.0269	22.1405	776.413	777.269	762.433	756.524	774.452	773.76	738.048	769.587	128.582	226.318	39.414	322.650	339.365	145.411	112.793	167.656	8192	-8191	8192	8192	254	
77089.234	1	1	0	0	10.8727	18.2281	25.2029	9.71553	31.2039	22.136	21.575	10.2602	872.769	922.659	2670.23	2203.44	1387.36	821.173	541.712	429.683	273.087	33.223	52.997	276.446	38.446	79.551	31.158	241.045	8192	-8191	8192	8192	254	
77089.312	1	1	0	0	10.7594	12.905	11.5222	9.99433	9.24574	7.43187	0.267497	1.08365	364.942	318.885	286.75	244.476	243.764	242.712	248.168	237.683	123.430	349.522	55.763	168.821	209.602	250.220	157.933	27.194	8192	-8191	8192	8192	254	
77089.359	1	1	0	0	4.86778	11.756	6.94278	3.91651	2.10813	14.0232	12.796	8.52436	234.062	236.567	246.312	233.226	230.038	231.712	238.019	239.615	97.607	164.493	114.012	104.458	138.944	152.885	186.856	58.615	8192	-8191	8192	8192	254	
77089.406	1	1	0	0	2.88733	1.03471	5.59735	12.3889	10.1379	11.5456	8.38131	8.2117	234.654	219.442	212	215.899	204.587	191.418	195.163	180.625	159.356	30.205	5.646	28.606	206.242	85.744	198.550	335.069	8192	-8191	8192	8192	254	
77089.453	1	1	0	0	4.15885	4.42487	12.13	10.8908	4.80307	5.06021	6.29741	6.22099	175.803	169.928	169.639	162.76	156.986	160.091	161.51	156.74	57.297	176.006	217.752	311.350	168.240	305.983	199.576	55.485	8192	-8191	8192	8192	254	
77089.500	1	1	0	0	2.22053	7.79819	7.14142	7.08546	10.1923	3.30058	3.51062	5.60616	145.654	152.24	154.365	160.558	161.38	156.308	159.548	173.399	28.971	153.509	35.590	63.189	170.497	81.797	181.726	248.816	8192	-8191	8192	8192	254	
77089.547	1	1	0	0	12.3013	10.8708	33.1247	6.60698	191.376	175.565	92.7699	1049.29	169.76	172.558	216.716	166.957	454.947	513.548	415.409	2170.12	49.346	187.273	27.606	129.975	191.329	193.441	192.678	190.213	8192	-8191	8192	8192	254	
77089.547	1	1	0	0	995.439	1035.51	954.006	4.71003	775.442	404.22	106.754	1178.17	1774.62	1994.05	1736.02	346.837	1487.66	938.567	549.236	2398.18	16.348	202.831	14.359	40.761	191.806	193.600	189.064	190.723	8192	-8191	8192	8192	254	
77089.594	1	1	0	0	1038.41	1095.1	956.806	14.1518	814.462	413.013	128.894	1265.57	1863.58	2081.23	1820.21	345.726	1530.32	986.125	572.76	2506.85	17.411	206.078	12.411	240.693	191.337	194.963	195.793	192.340	8192	-8191	8192	8192	254	
77089.672	1	1	0	0	1132.36	1170.53	1074.48	5.96172	840.864	428.245	144.631	1348.69	1942.98	2177.16	1928.33	346.428	1583.87	1012.46	562.447	2585.8	17.095	204.365	15.132	241.928	190.982	196.515	202.504	190.597	8192	-8191	8192	8192	254	
77089.719	1	1	0	0	1128.32	1208.99	1110.01	12.8181	922.526	439.093	172.722	1361.76	1995.28	2246.9	1972.71	320.332	1636.54	992.202	552.798	2629.58	16.021	204.498	13.834	131.120	192.364	194.032	193.992	191.118	8192	-8191	8192	8192	254	
77089.766	1	1	0	0	1197.07	1218.16	1110.25	8.01004	908.411	455.204	140.937	1333.44	2016.86	2254.11	1942.61	288.087	1597.12	977.562	520.716	2556.15	17.607	203.095	14.730	82.594	190.454	194.886	199.039	191.153	8192	-8191	8192	8192	254	
77089.812	1	1	0	0	1147.55	1194.56	1091.98	9.273	894.941	443.425	151.541	1349.63	1986.09	2195.77	1892.92	239.014	1543.29	915.865	454.529	2513.37	15.735	204.219	14.435	259.885	190.530	194.037	194.509	190.325	8192	-8191	8192	8192	254	
77089.859	1	1	0	0	1163.44	1157.61	1083.54	4.00827	865.201	420.723	124.949	1259.92	1898.41	2104.25	1794.32	193.077	1412.01	841.317	382.192	2342.87	15.426	204.269	14.474	3.710	192.769	195.011	197.229	192.399	8192	-8191	8192	8192	254	
77089.906	1	1	0	0	1086.61	1077.26	1018.87	4.14523	811.172	376.57	130.864	1150.87	1722.47	1934.8	1656.31	156.226	1321.04	761.51	342.466	2135.89	15.781	205.119	14.574	68.540	190.625	193.825	197.451	191.915	8192	-8191	8192	8192	254	
77089.953	1	1	0	0	986.336	1007.04	931.806	6.01666	776.946	357.578	120.24	1139.91	1576.89	1770.6	1537.81	135.659	1249.98	711.12	322.779	2110.32	15.340	203.918	12.919	187.291	191.235	194.767	200.210	190.093	8192	-8191	8192	8192	254	
77090.008	1	1	0	0	1015.8	1001.82	923.215	3.77229	796.093	386.548	114.74	1154.37	1578.75	1729.38	1498.65	108.784	1225.06	706.519	302.899	2091.82	16.542	206.038	14.901	299.047	189.973	197.375	198.062	190.507	8192	-8191	8192	8192	254	
77090.055	1	1	0	0	972.527	984.94	918.74	7.26521	789.182	376.481	113.921	1149.01	1547.06	1704.62	1511.7	115.534	1221.23	710.986	302.885	2093.94	16.367	205.334	12.382	174.466	191.421	194.675	193.977	191.049	8192	-8191	8192	8192	254	
77090.102	1	1	0	0	958.443	1038.81	883.078	7.93548	793.781	358.929	114.948	1149.24	1527.05	1756.73	1488.69	114.139	1242.2	701.837	310.245	2081.93	17.623	205.995	15.854	163.711	191.653	194.786	197.559	191.292	8192	-8191	8192	8192	254	
77090.172	1	1	0	0	975.39	1000.03	898.186	5.82147	750.073	364.102	120.66	1137.49	1537.29	1753.15	1480.75	114.365	1213.88	685.952	313.005	2083.09	16.416	205.397	14.579	253.750	192.661	196.546	199.506	190.225	8192	-8191	8192	8192	254	
77090.219	1	1	0	0	1003.24	992.894	904.363	9.11132	765.271	387.099	108.38	1154.74	1562.56	1702.72	1496.09	121.981	1236.32	705.216	302.495	2083.05	15.370	204.869	13.190	118.242	192.439	197.774	194.099	190.853	8192	-8191	8192	8192	254	
77090.266	1	1	0	0	916.253	1019.34	910.387	9.29716	776.447	357.519	108.64	1149.45	1527.01	1733.09	1491.07	113.38	1245.7	682.308	306.688	2079.21	17.424	206.317	15.389	102.294	192.438	194.717	206.158	190.631	8192	-8191	8192	8192	254	
77090.312	1	1	0	0	960.615	998.576	868.744	6.75391	765.543	383.961	107.358	1119.29	1532.14	1721.74	1466.05	119.38	1224.79	706.019	304.519	2062.78	16.898	204.611	14.320	308.115	190.085	195.894	200.040	193.157	8192	-8191	8192	8192	254	
77090.320	1	1	0	0	957.779	958.759	886.416	10.5544	773.5	358.21	123.597	1119.78	1547.39	1693.33	1479.82	115.12	1209.78	693.716	301.173	2061	16.671	203.190	15.074	145.717	190.385	193.287	200.812	190.209	8192	-8191	8192	8192	254	
77090.367	1	1	0	0	965.335	1022.77	911.607	7.87255	773.054	393.495	113.568	1137.74	1527.49	1703.45	1478.16	105.548	1204.04	682.966	295.553	2067.06	15.128	204.903	15.772	150.706	190.822	194.344	197.404	191.433	8192	-8191	8192	8192	254	
77090.414	1	1	0	0	984.771	1018.35	911.338	6.97289	727.663	366.475	104.832	1112.33	1513.04	1701.06	1472.06	94.1346	1186.31	675.731	290.029	2059.36	15.604	204.161	16.113	232.415	189.919	195.462	193.330	189.147	8192	-8191	8192	8192	254	
77090.461	1	1	0	0	984.117	993.439	942.385	12.363	767.652	370.345	122.539	1112.51	1518.67	1695.31	1496.21	101.5	1213.19	681.178	304.957	2051.58	17.353	205.499	16.056	130.312	190.218	193.197	196.920	191.835	8192	-8191	8192	8192	254	
77090.508	1	1	0	0	953.824	1040.24	917.222	4.61977	765.261	361.452	123.489	1099.84	1506.44	1719.24	1468.82	108.274	1215.12	681.663	310.5	2048.04	16.732	206.211	16.337	93.972	191.157	192.068	198.637	191.379	8192	-8191	8192	8192	254	
77090.555	1	1	0	0	987.137	996.63	903.666	6.65871	773.745	378.482	122.201	1120.11	1535.31	1682.16	1467.09	112.375	1226.32	711.38	308.947	2078.67	15.916	205.756	15.822	271.548	190.492	196.308	194.648	191.388	8192	-8191	8192	8192	254	
77090.625	1	1	0	0	974.321	1001.59	921.31	3.48925	752.678	372.216	123.41	1144.28	1529.7	1686.9	1483.48	117.913	1213.03	677.12	306.639	2053.37	15.661	204.403	15.133	188.335	192.711	193.349	201.332	191.314	8192	-8191	8192	8192	254	
77090.680	1	1	0	0	968.784	991.805	905.164	6.03968	782.241	381.152	118.672	1133.3	1540.72	1688.11	1481.87	118.678	1227.52	687.38	306.865	2056.88	16.480	204.872	15.525	286.503	190.323	194.430	193.729	190.054	8192	-8191	8192	8192	254	
77090.727	1	1	0	0	951.112	961.67	898.358	1.94562	776.587	348.879	112.954	1105.19	1512.03	1672.63	1488.68	107.01	1204.86	681.077	310.361	2032.97	16.380	204.902	13.088	7.634	191.263	195.518	194.840	192.239	8192	-8191	8192	8192	254	
77090.773	1	1	0	0	988.915	965.67	893.83	10.3395	781.137	365.981	108.499	1138.37	1522.79	1700.03	1467.24	110.457	1210.46	685.981	295.913	2040.62	16.352	203.298	12.786	64.515	190.753	197.751	198.097	191.336	8192	-8191	8192	8192	254	
77090.820	1	1	0	0	947.611	987.265	923.327	4.11824	763.055	362.289	104.703	1142.24	1537.62	1678.23	1484.8	104.385	1196.28	666.673	289.466	2059.92	15.584	203.767	15.702	215.824	192.224	195.741	199.033	191.131	8192	-8191	8192	8192	254	
77090.867	1	1	0	0	1005.62	1008.72	906.012	4.2711	773.286	362.201	110.158	1128.17	1554.75	1695.4	1475.98	112.639	1205.89	692.13	305.635	2052.65	15.035	206.541	15.646	89.957	192.668	195.096	199.776	193.522	8192	-8191	8192	8192	254	
77090.938	1	1	0	0	952.403	997.665	919.439	4.89112	732.119	380.53	120.078	1137.94	1514.67	1703.7	1487.89	115.221	1183.5	690.062	314.317	2073.78	16.178	205.300	13.056	202.568	190.357	193.908	195.675	191.583	8192	-8191	8192	8192	254	
77090.992	1	1	0	0	980.41	999.545	906.791	3.78329	766.535	363.854	113.481	1145.45	1545.61	1711.57	1460.38	118.457	1228.4	684.88	305.894	2058.43	16.718	205.559	14.545	121.336	190.149	193.907	194.129	190.494	8192	-8191	8192	8192	254	
77091.039	1	1	0	0	972.455	1019.8	883.163	2.66833	757.056	363.557	128.136	1152.28	1527.9	1709.57	1502.39	112.899	1200.32	689.558	307.5	2072.54	14.845	204.852	16.239	21.922	191.863	195.620	202.199	190.579	8192	-8191	8192	8192	254	
77091.086	1	1	0	0	961.702	983.607	907.697	8.02385	753.636	378.985	131.098	1115.63	1518.8	1703.35	1495.63	108.851	1215.91	684.51	306.178	2055.02	17.429	206.215	15.918	238.364	189.963	194.375	196.230	191.261	8192	-8191	8192	8192	254	
77091.086	1	1	0	0	978.523	1001.2	897.613	8.04805	775.525	380.619	110.451	1123.54	1533.14	1674.43	1471.38	108.861	1214.2	692.76	296.683	2050.15	17.256	204.936	14.619	138.346	190.889	193.618	205.378	189.784	8192	-8191	8192	8192	254	
77091.133	1	1	0	0	965.873	953.236	911.315	5.42561	793.449	368.646	120.689	1096.29	1501.47	1692.03	1482.74	116.875	1202.48	688.913	303.438	2030.25	18.472	204.695	15.394	172.970	189.987	195.000	193.358	192.697	8192	-8191	8192	8192	254	
77091.180	1	1	0	0	961.594	989.471	880.705	6.61375	726.294	400.327	114.239	1146.4	1521.2	1691.77	1473.75	100.793	1184.76	687.385	313.558	2053.97	16.208	204.425	15.764	154.996	193.464	194.809	196.573	190.190	8192	-8191	8192	8192	254	
77091.227	1	1	0	0	961.871	992.914	937.574	11.5934	774.887	371.948	115.241	1107.17	1520.85	1688.89	1498.81	103.447	1199.44	682.731	285.38	2041.78	14.759	204.333	15.083	128.305	190.803	192.789	192.470	191.261	8192	-8191	8192	8192	254	
77091.305	1	1	0	0	981.932	962.189	885.626	5.71612	759.987	407.759	102.898	1163.41	1520.78	1676.91	1465.33	106.442	1190.75	721.538	299.327	2051.2	16.729	205.793	15.507	91.604	190.657	194.835	196.808	189.298	8192	-8191	8192	8192	254	
77091.352	1	1	0	0	968.574	973.361	888.351	4.85447	742.833	375.26	129.594	1079.6	1513.36	1676.35	1452.63	109.337	1185.49	682.072	297.784	2029.99	17.414	206.696	14.786	149.086	190.658	193.418	195.300	191.912	8192	-8191	8192	8192	254	
77091.398	1	1	0	0	950.544	991.984	899.374	6.68689	777.315	389.883	121.404	1149.23	1496.17	1689.92	1465.5	99.4183	1193.71	690.471	289.029	2054.66	15.493	204.608	14.968	232.722	190.943	192.044	193.592	192.122	8192	-8191	8192	8192	254	
77091.445	1	1	0	0	990.915	970.208	915.306	7.02173	734.306	369.898	123.819	1108.45	1508.03	1660.35	1435.09	66.6106	1130.18	623.341	246.091	1971.15	16.133	204.285	14.382	205.404	193.522	195.252	197.782	191.823	8192	-8191	8192	8192	254	
77091.492	1	1	3	0	931.79	998.098	902.503	7.91458	751.12	377.506	115.429	1117.52	1411.61	1633.45	1409	49.6587	1133.67	636.029	236.971	1985.7	17.622	203.885	15.180	241.746	191.099	194.112	195.398	190.165	8192	-8191	8192	8192	254	
77091.539	1	1	0	0	936.883	990.339	893.696	3.21245	764.827	359.583	119.241	1130.74	1422.56	1627.22	1405.3	43.2885	1140.32	622.139	245.538	1964.14	17.862	205.835	15.312	12.756	191.745	194.003	197.753	191.712	8192	-8191	8192	8192	254	
77091.609	1	1	0	0	927.922	973.221	913.876	11.7162	761.611	365.321	107.613	1127.82	1419.14	1622.44	1411.69	42.0385	1135.5	616.053	230.236	1975.17	15.914	203.829	13.791	151.944	189.736	193.923	194.937	190.886	8192	-8191	8192	8192	254	
77091.656	1	1	0	0	951.693	974.976	911.169	10.1681	758.289	358.258	118.908	1131.99	1420	1612.1	1403.62	43.0144	1138.21	602.49	245.062	1992.25	16.378	206.201	14.261	276.908	190.554	192.719	200.784	192.684	8192	-8191	8192	8192	254	
77091.711	1	1	0	0	966.735	970.214	928.038	8.46198	758.517	379.042	117.583	1143.64	1440.87	1606.45	1417.55	45.7596	1133.56	641.486	235.245	1995.55	17.366	203.625	14.390	246.927	192.521	194.693	192.706	190.133	8192	-8191	8192	8192	254	
77091.758	1	1	0	0	974.962	953.312	882.311	4.68102	751.952	388.932	118.899	1086.05	1440.58	1602.7	1395.15	50.8462	1125.3	628.005	237.466	1960.36	15.663	205.143	14.808	102.319	190.677	195.362	195.957	191.704	8192	-8191	8192	8192	254	
77091.805	1	1	0	0	947.856	981.429	906.676	10.8158	749.061	365.683	114.449	1135.38	1452.18	1613.5	1402.03	48.2163	1133.79	613.87	238.043	1950.64	16.812	204.265	14.836	257.204	190.851	193.071	194.928	191.027	8192	-8191	8192	8192	254	
77091.852	1	1	0	0	941.727	962.795	864.268	2.2889	773.051	369.846	115.235	1132.19	1440.68	1629.56	1400.71	46.0673	1152.93	631.707	241.812	1977.6	17.001	205.843	15.279	323.476	190.703	194.308	194.011	191.620	8192	-8191	8192	8192	254	
77091.852	1	1	0	0	960.119	977.026	901.326	3.05406	743.577	355.055	112.46	1140.54	1444.63	1621.3	1428.75	59.3558	1147.88	642.062	263.404	2018.95	14.730	206.400	14.485	211.263	190.923	193.465	195.188	190.378	8192	-8191	8192	8192	254	
77091.898	1	1	0	0	988.805	1015.08	915.993	4.30004	779.959	366.115	126.008	1107.27	1485.65	1672.52	1429.75	79.1923	1188.68	658.24	277.361	2005.11	16.056	204.935	15.746	59.347	190.311	193.457	199.804	191.840	8192	-8191	8192	8192	254	
77091.945	1	1	0	0	960.231	955.746	893.79	3.13256	782.475	379.17	107.3	1116.07	1506.96	1662.52	1425.88	78.4183	1179.65	659.918	273.038	2024.01	16.599	207.516	14.779	239.759	191.825	193.984	201.548	190.870	8192	-8191	8192	8192	254	
77092.000	1	1	0	0	956.23	1004.68	899.003	7.46056	767.59	369.73	109.462	1170.81	1473.88	1681.34	1444.19	80.0433	1177.48	652.091	271.745	2042.38	15.501	204.632	15.129	41.028	191.486	193.541	198.978	190.253	8192	-8191	8192	8192	254	
77092.070	1	1	0	0	977.153	980.873	885.06	2.46339	782.869	364.947	106.483	1130.64	1493.89	1670.6	1434.45	90.9712	1193.58	672.889	268.832	2037.35	16.881	204.650	15.602	152.429	191.130	195.281	195.125	191.277	8192	-8191	8192	8192	254	
77092.117	1	1	0	0	971.898	979.057	868.555	5.94769	773.857	395.177	112.086	1114.07	1496.33	1669.91	1422.07	84.9423	1195.86	665.966	275.577	2027.18	15.659	204.087	15.624	170.414	190.969	196.187	201.207	192.187	8192	-8191	8192	8192	254	
77092.164	1	1	0	0	971.612	988.761	915.043	5.77266	765.947	346.904	110.715	1132.84	1501.27	1649.35	1449.1	88.6587	1171.31	643.26	269.014	2011.09	15.384	205.262	15.125	105.703	191.312	192.770	194.714	190.741	8192	-8191	8192	8192	254	
77092.211	1	1	0	0	934.326	992.308	876.506	1.22281	748.243	373.254	113.77	1107.55	1497.76	1676.15	1425.38	65.4904	1156.41	650.043	265.082	1993.19	16.752	204.314	14.263	76.361	190.038	194.821	204.640	190.915	8192	-8191	8192	8192	254	
77092.258	1	1	0	0	911.125	992.062	933.399	5.41343	746.721	356.868	101.927	1126.5	1438.75	1631.41	1429.51	53.9663	1148.44	607.856	241.332	1984.64	15.958	203.807	14.204	255.440	192.595	192.816	202.548	191.690	8192	-8191	8192	8192	254	
77092.305	1	1	0	0	972.103	987.317	889.665	7.22665	733.354	374.259	112.465	1133.08	1460.91	1623.69	1416.28	50.9135	1133.04	623.264	245.12	1996.92	16.895	204.447	16.177	288.086	191.040	195.214	203.635	191.183	8192	-8191	8192	8192	254	
77092.359	1	1	0	0	950.06	947.608	895.495	6.46236	751.561	375.594	114.205	1176.2	1466.12	1618.28	1426.98	55.5913	1152.07	621.611	243.49	2022.89	17.057	206.016	14.814	212.951	190.565	194.100	200.088	191.412	8192	-8191	8192	8192	254	
77092.406	1	1	0	0	938.614	953.636	906.377	5.42571	785.232	386.788	118.804	1110.79	1429.82	1623.71	1420.81	47.75	1145.62	639.139	242.918	1996.73	15.000	205.177	14.581	233.323	190.631	197.710	198.860	191.425	8192	-8191	8192	8192	254	
77092.477	1	1	0	0	972.607	1011.42	906.246	4.77571	777.991	380.269	102.159	1147.17	1462.42	1625.53	1410.39	55.375	1165.38	631.212	245.135	1986.5	15.292	205.178	15.144	45.762	191.029	195.579	194.203	192.395	8192	-8191	8192	8192	254	
77092.523	1	1	0	0	968.409	945.561	885.554	4.26076	755.826	354.092	115.803	1083.8	1453.24	1613.72	1421.25	50.6154	1131.36	628.264	251.495	1974.56	17.592	204.185	17.188	241.727	191.223	196.608	199.221	192.810	8192	-8191	8192	8192	254	
77092.570	1	1	0	0	941.327	964.094	918.427	3.85248	775.877	373.314	117.991	1163.94	1435.88	1622.64	1427.18	49.5	1157.05	628.418	238.053	2023.63	15.765	203.339	13.885	177.436	191.950	194.731	200.815	191.183	8192	-8191	8192	8192	254	
77092.617	1	1	0	0	965.854	991.805	928.288	2.65891	766.078	368.988	113.537	1123.47	1481.21	1661.86	1427.87	54.8413	1155.97	625.317	243	1990.88	14.763	204.305	15.280	19.818	190.795	195.756	197.899	192.148	8192	-8191	8192	8192	254	
77092.617	1	1	0	0	957.845	973.213	900.362	5.83065	753.38	409.32	117.29	1136.19	1463.69	1632.23	1401.49	54.5817	1161.25	647.543	244.212	2003.94	15.741	203.462	15.456	129.801	189.629	196.773	199.457	191.785	8192	-8191	8192	8192	254	
77092.672	1	1	0	0	920.911	1000.1	872.16	3.41053	743.535	375.904	102.761	1133.61	1430.44	1643	1392.46	48.6971	1136.54	632.048	239.635	2016.54	16.313	204.204	15.697	197.191	192.273	196.619	200.145	192.051	8192	-8191	8192	8192	254	
77092.719	1	1	0	0	952.611	974.414	871.102	1.75711	759.565	379.336	123.528	1124.69	1451.13	1618.85	1409.41	53.625	1138.77	642.553	258.587	1992.74	15.850	203.671	14.771	118.208	192.695	192.552	195.768	191.410	8192	-8191	8192	8192	254	
77092.766	1	1	0	0	947.118	987.883	901.494	3.5427	759.711	367.366	112.911	1134.6	1460.53	1638.37	1392.6	53.3269	1147.13	645.851	253.183	1983.88	16.034	204.563	14.839	209.719	190.594	196.402	192.985	190.950	8192	-8191	8192	8192	254	
77092.836	1	1	0	0	961.588	976.898	891.682	4.98632	774.154	374.5	118.537	1138.54	1455.16	1624.35	1412.51	50.2212	1149.87	622.683	246.125	2010.44	16.370	204.601	13.246	326.595	190.757	197.676	198.646	190.320	8192	-8191	8192	8192	254	
77092.883	1	1	0	0	961.421	1013.17	911.553	4.28569	767.298	378.367	113.804	1114.67	1468.22	1640.41	1403.51	54.4904	1146.2	626.38	244.005	1991.21	17.636	204.369	15.041	190.933	190.971	195.172	197.574	191.740	8192	-8191	8192	8192	254	
77092.930	1	1	0	0	946.925	992.495	892.467	5.8308	771.029	392.619	112.751	1096.22	1432.63	1623.64	1397.34	55.1058	1143.09	638.428	249.072	1968.85	14.515	203.880	15.658	208.621	192.267	198.902	194.448	190.042	8192	-8191	8192	8192	254	
77092.984	1	1	0	0	984.173	985.899	902.721	7.19073	739.536	366.218	120.611	1115.95	1463.59	1634.95	1398.8	55.5577	1126.34	625.043	250.505	1982.24	16.136	203.719	13.349	170.197	192.910	194.779	195.572	191.333	8192	-8191	8192	8192	254	
77093.031	1	1	0	0	958.801	1020.76	916.494	6.76088	743.783	377.029	109.014	1146.97	1447.3	1627.25	1415.61	52.0385	1144.61	635.024	246.659	2006.84	17.556	205.296	14.415	159.271	190.229	192.523	199.376	192.263	8192	-8191	8192	8192	254	
77093.078	1	1	0	0	998.244	976.991	898.858	2.96149	767.083	370.697	108.575	1142.45	1481.95	1633.19	1406.43	53.3606	1153.44	627.582	231.779	2012.51	15.221	206.059	14.766	343.547	191.616	192.349	192.321	192.151	8192	-8191	8192	8192	254	
77093.125	1	1	0	0	962.743	949.435	899.86	5.47906	797.093	382.385	120.525	1154.23	1449.49	1612.84	1406.39	53.0577	1172	641.399	244.332	2025.94	15.675	205.224	15.397	64.522	192.978	193.079	201.385	191.929	8192	-8191	8192	8192	254	
77093.172	1	1	0	0	949.419	1001.55	887.294	7.49855	790.676	376.497	117.824	1133.64	1446.08	1639.53	1410.75	52.2115	1164.51	622.918	244.562	1993.41	16.834	204.786	13.844	156.834	190.958	193.383	202.416	190.471	8192	-8191	8192	8192	254	
77093.242	1	1	0	0	976.082	975.987	907.539	7.98709	759.518	379.279	121.698	1138.71	1464.4	1640.05	1412.68	54.2212	1140.2	625.591	246.053	2018.42	16.011	205.737	16.304	339.967	190.246	196.091	192.856	191.460	8192	-8191	8192	8192	254	
77093.289	1	1	0	0	927.191	1001.46	920.731	0.784204	764.579	361.497	108.74	1106.96	1440.04	1655.42	1431.22	47.0048	1147.19	629.264	237.591	1971.7	16.567	204.913	15.200	243.209	191.922	194.260	198.492	190.516	8192	-8191	8192	8192	254	
77093.344	1	1	0	0	951.523	1001.12	903.656	3.52168	732.192	341.681	117.357	1148.39	1454.99	1639.52	1403.41	51.2404	1129.51	627.755	251.394	2001.5	16.328	202.967	14.744	162.610	192.119	193.730	195.500	191.555	8192	-8191	8192	8192	254	
77093.391	1	1	0	0	962.939	969.348	897.124	3.1991	751.608	365.107	129.965	1131.67	1460.38	1616.28	1428.12	52.7885	1143.5	643.212	257.144	1994.38	17.975	205.292	15.110	206.357	192.952	192.779	201.579	190.273	8192	-8191	8192	8192	254	
77093.391	1	1	0	0	939.073	989.842	905.515	7.57624	754.974	390.335	122.433	1124.31	1450.96	1640.96	1427.31	60.8173	1159.38	649.293	259.462	2010.96	16.536	204.410	14.243	253.279	191.762	195.326	191.041	191.782	8192	-8191	8192	8192	254	
77093.438	1	1	0	0	961.834	1012.57	906.28	5.59079	784.735	354.952	104.037	1129.79	1467.03	1642.03	1412.72	68.5048	1170.29	641.582	251.38	1990.45	16.813	205.730	14.965	156.980	192.941	196.010	197.658	191.091	8192	-8191	8192	8192	254	
77093.508	1	1	0	0	972.427	979.673	906.359	7.12844	730.505	375.14	140.14	1156.92	1491.04	1642.5	1443.65	78.5817	1147.93	662.769	282.899	2020.91	16.707	203.393	14.596	184.067	190.815	194.726	193.611	191.518	8192	-8191	8192	8192	254	
77093.555	1	1	0	0	954.392	1014.02	956.326	10.4747	763.62	377.124	112.75	1126.81	1470.63	1660.31	1472.87	86.8365	1182.98	651.26	269.163	2001.51	16.827	203.981	14.655	316.053	191.403	194.688	196.731	190.304	8192	-8191	8192	8192	254	
77093.602	1	1	0	0	953.591	975.603	889.526	9.33516	772.738	380.057	123.144	1121.66	1482.73	1635.53	1447.38	84.4038	1169.32	667.197	280.433	2039.48	17.138	204.811	15.976	223.101	190.769	196.621	193.485	190.692	8192	-8191	8192	8192	254	
77093.648	1	1	0	0	1004.24	997.649	902.974	5.12744	780.621	376.789	129.619	1136.85	1521.26	1692.34	1441.41	89.4471	1190.91	682.764	295.168	2033.3	15.985	206.091	14.695	206.061	191.355	196.657	195.119	191.408	8192	-8191	8192	8192	254	
77093.703	1	1	0	0	949.373	984.888	898.027	5.27599	763.686	363.067	112.424	1125.75	1490.79	1674.38	1459.27	98.4183	1186.95	672.01	283.524	2029.47	16.143	204.982	15.286	102.793	192.199	193.946	194.194	190.546	8192	-8191	8192	8192	254	
77093.750	1	1	0	0	964.691	970.03	889.871	4.04164	747.167	397.75	109.148	1139.63	1489.94	1681.2	1450.01	97.5577	1178.42	687.293	281.524	2052.16	14.376	203.953	14.008	123.887	189.850	194.568	195.697	189.690	8192	-8191	8192	8192	254	
77093.797	1	1	0	0	974.868	963.398	896.933	4.5543	752.36	351.165	102.247	1140.3	1500.89	1657.26	1461.54	88.0769	1177.9	659.192	282.957	2055.26	15.584	204.086	15.384	226.181	190.088	194.229	197.752	192.626	8192	-8191	8192	8192	254	
77093.844	1	1	0	0	961.857	1035.09	894.683	2.94677	733.076	358.046	127.145	1100.3	1494.25	1680.4	1451.93	88.6971	1190.12	669.995	302.389	2023.99	15.599	204.196	16.037	203.417	191.598	194.213	198.634	191.257	8192	-8191	8192	8192	254	
77093.914	1	1	0	0	946.801	1018.03	891.76	10.4748	745.494	372.352	110.118	1115.41	1498.37	1688	1427.82	89.5577	1193.08	672.236	284.038	2018.47	16.416	204.907	14.686	241.814	189.157	196.144	195.645	191.345	8192	-8191	8192	8192	254	
77093.961	1	1	0	0	970.411	989.921	871.817	1.63397	757.052	393.577	114.315	1152.91	1507.12	1657	1445.3	97.1442	1191.49	679.029	288.317	2040.43	15.741	203.615	12.980	351.109	190.924	193.561	200.392	192.266	8192	-8191	8192	8192	254	
77094.016	1	1	0	0	971.022	1012.34	923.828	9.7519	744.1	368.421	112.655	1152.34	1492.83	1687.68	1445.97	95.7837	1171.27	676.981	279.312	2051.15	15.865	205.329	14.485	63.898	191.238	194.312	198.360	190.294	8192	-8191	8192	8192	254	
77094.062	1	1	0	0	949.705	979.664	855.402	6.04243	732.739	363.923	121.834	1164.95	1487.61	1664.5	1434.77	97.2067	1190.62	663.365	287.971	2034.58	15.622	205.425	15.339	48.072	193.037	194.701	193.770	191.542	8192	-8191	8192	8192	254	
77094.109	1	1	0	0	953.009	957.687	922.846	7.7747	776.601	383.833	112.764	1163.09	1494.09	1649.7	1458.22	86.5673	1180.35	670.264	268.188	2034.01	15.772	205.555	16.142	9.601	190.798	193.951	202.989	191.468	8192	-8191	8192	8192	254	
77094.156	1	1	0	0	970.953	979.002	899.755	2.51771	781.841	349.366	124.52	1144.54	1503.88	1671.01	1412.47	68.0288	1180.46	641.962	267.712	2018.65	18.235	205.157	14.802	113.443	191.673	196.856	197.732	191.981	8192	-8191	8192	8192	254	
77094.156	1	1	0	0	972.78	960.574	892.245	2.90243	752.552	376.717	120.002	1129.95	1485.18	1634.08	1412.51	71.0865	1162.84	664.639	275.014	2029.49	15.515	205.903	14.498	334.111	191.498	194.538	196.826	191.104	8192	-8191	8192	8192	254	
77094.203	1	1	0	0	944.465	994.198	894.955	4.96651	757.455	377.543	112.099	1147.69	1500.35	1685.64	1432.26	85.8221	1174.1	674.851	276.303	2020.5	16.850	206.330	13.615	108.723	191.436	192.464	191.684	192.539	8192	-8191	8192	8192	254	
77094.250	1	1	0	0	989.464	956.862	893.7	0.704592	782.296	364.169	100.295	1117.86	1507.33	1655.87	1444.12	88.0962	1188.02	676.582	277.236	2020.91	16.411	205.746	14.329	293.835	190.417	193.417	195.127	189.770	8192	-8191	8192	8192	254	
77094.297	1	1	0	0	948.719	1000.54	876.032	12.1383	778.387	368.483	109.334	1150.22	1473.48	1667.92	1414.01	87.524	1189.67	660.928	281.495	2049.7	16.274	204.372	15.323	3.052	192.307	194.114	200.871	191.839	8192	-8191	8192	8192	254	
77094.375	1	1	0	0	961.964	1014.53	929.919	3.54764	771.763	368.086	110.033	1105.51	1490.94	1685.09	1457.88	83.6058	1187.15	675.731	281.577	2007.76	17.310	204.472	13.226	214.569	190.232	195.005	193.203	191.715	8192	-8191	8192	8192	254	
77094.422	1	1	0	0	986.024	978.593	904.127	3.7046	770.849	359.685	122.802	1101.49	1506.92	1669.69	1425.14	61.7788	1157.58	633.014	255.553	1988.13	16.447	204.981	14.503	67.708	192.100	194.659	194.469	190.553	8192	-8191	8192	8192	254	
77094.469	1	1	0	0	980.563	982.349	901.852	3.90834	780.986	380.676	120.918	1122.97	1458.2	1615.75	1408.25	48.6875	1144.77	627.452	243.505	2008.07	15.889	206.555	16.539	157.729	192.397	195.102	194.554	190.792	8192	-8191	8192	8192	254	
77094.516	1	1	0	0	977.286	975.489	932.703	4.73336	782.572	360.109	126.693	1098.82	1465.15	1629.91	1431.2	49.1538	1162.47	627.827	246.769	1979.37	15.538	204.111	13.665	171.773	191.220	195.119	196.454	190.210	8192	-8191	8192	8192	254	
77094.562	1	1	0	0	990.792	1009.02	904.647	5.29995	779.635	382.926	111.084	1137.8	1467.37	1655.61	1409.15	50.3221	1157.99	634.37	242.692	2003.92	16.456	204.074	17.461	125.541	193.428	194.090	193.216	190.725	8192	-8191	8192	8192	254	
77094.609	1	1	0	0	969.521	1004.92	881.773	0.470018	756.747	356.311	114.171	1126.93	1454.02	1621.67	1395.55	48.9087	1141.1	634.606	244.692	1997.71	16.022	205.083	14.536	124.526	192.112	192.956	201.695	191.785	8192	-8191	8192	8192	254	
77094.664	1	1	0	0	941.629	974.46	891.99	5.13871	771.735	369.129	126.404	1129.26	1451.78	1632.77	1388.96	48.2644	1148.47	622.572	248.062	1993.77	14.619	204.776	13.571	183.079	190.322	193.712	197.362	190.309	8192	-8191	8192	8192	254	
77094.711	1	1	0	0	938.661	988.784	911.994	8.15338	786.766	358.844	115.826	1109.81	1450	1630.98	1413.87	51.8942	1150.03	615.264	241.519	1983.76	16.064	203.664	16.022	174.812	191.642	195.484	199.490	190.581	8192	-8191	8192	8192	254	
77094.781	1	1	0	0	946.082	994.599	905.874	6.09467	767.197	366.22	117.504	1120.21	1448.66	1634.07	1404.87	53.125	1143.57	621.995	240.312	1992.66	15.060	206.108	14.506	262.212	190.917	195.702	197.354	190.743	8192	-8191	8192	8192	254	
77094.828	1	1	0	0	976.395	990.453	907.137	2.59062	747.887	353.818	114.269	1127.37	1458.06	1613.46	1411.25	52.3221	1137.78	612.909	239	1984.27	15.082	204.966	13.980	242.560	192.238	193.626	200.993	191.210	8192	-8191	8192	8192	254	
77094.875	1	1	0	0	979.403	978.013	889.463	6.23646	744.245	373.833	116.494	1163.5	1466.27	1634.14	1398.13	47.4567	1138.06	637.736	248.389	2037.12	17.266	204.861	13.749	282.386	188.264	194.703	196.914	188.859	8192	-8191	8192	8192	254	
77094.922	1	1	0	0	966.019	959.555	894.333	5.73646	733.237	388.864	116.142	1106.25	1445.14	1617.12	1410.53	51.1779	1148.61	644.423	238.995	1958.8	15.468	205.478	15.151	38.299	191.697	196.563	196.201	190.251	8192	-8191	8192	8192	254	
77094.922	1	1	0	0	958.751	994.95	905.289	6.82306	769.245	381.346	120.424	1116.76	1462.49	1639.15	1427.14	51.1683	1157.17	628.562	248.827	2000.93	16.196	202.669	15.007	269.219	192.075	194.133	195.637	190.908	8192	-8191	8192	8192	254	
77094.977	1	1	0	0	945.623	996.359	919.047	7.53198	771.475	369.184	108.884	1108.68	1455.29	1650.66	1414.56	56.1442	1140.21	632.077	243.99	2004.7	16.621	205.082	14.735	193.771	191.059	196.164	199.156	188.697	8192	-8191	8192	8192	254	
77095.023	1	1	0	0	966.152	988.395	901.286	6.17261	764.059	380.036	120.883	1114.74	1459.91	1642.16	1427.83	49.7404	1144.57	638.423	244.702	1967.06	16.207	205.439	15.772	154.587	189.549	193.447	195.755	190.530	8192	-8191	8192	8192	254	
77095.070	1	1	0	0	940.241	992.249	880.42	3.04167	739.71	358.828	128.957	1123.7	1442.29	1645.37	1400.95	50.0433	1138.77	632.779	257.63	1984.2	17.362	204.223	14.416	142.787	192.067	195.455	193.846	191.982	8192	-8191	8192	8192	254	
77095.141	1	1	0	0	967.236	1002.47	891.814	6.29331	766.191	377.582	114.497	1109.64	1470.95	1626.69	1400.29	55.4231	1156.78	630.394	247.428	1996.68	16.950	205.603	15.729	257.106	189.177	196.869	196.559	191.495	8192	-8191	8192	8192	254	
77095.188	1	1	0	0	948.156	958.265	914.553	3.56184	768.617	379.414	117.538	1139.8	1452.02	1627.37	1397.77	50.8654	1155.71	633.928	260.442	2015.4	15.682	206.429	17.576	121.007	191.658	194.866	194.666	191.950	8192	-8191	8192	8192	254	
77095.234	1	1	0	0	949.596	973.286	889.216	6.00531	775.178	367.965	124.663	1115.18	1447.27	1624.55	1416.36	60.8558	1152.56	629.37	254.26	1992.07	16.421	206.406	13.767	294.099	191.544	195.586	197.109	189.853	8192	-8191	8192	8192	254	
77095.281	1	1	0	0	980.93	983.522	899.565	6.83654	760.308	368.457	110.326	1119.9	1468.52	1634.37	1412.67	58.6683	1161.38	638.481	253.986	1996.88	16.812	204.397	15.582	191.528	191.878	193.513	205.027	189.876	8192	-8191	8192	8192	254	
77095.336	1	1	4	0	961.508	986.822	911.292	4.16977	754.997	367.162	115.211	1116.83	1457.98	1634.19	1431.89	65.7019	1158.13	648.423	270.375	2024.55	16.856	204.772	14.799	252.632	191.793	195.839	203.169	192.386	8192	-8191	8192	8192	254	
77095.383	1	1	0	0	963.267	986.011	927.225	7.87733	796.069	363.365	120.499	1152.93	1472.29	1660.03	1453.43	87.2212	1207	666.885	297.524	2054.14	16.302	204.611	15.105	126.676	192.654	195.576	200.781	191.642	8192	-8191	8192	8192	254	
77095.453	1	1	0	0	958.772	1001.57	882.904	3.97752	781.096	371.716	101.068	1159.23	1506.86	1702	1471.17	110.005	1210.67	696.774	299.889	2060.29	15.029	203.622	16.106	16.271	192.167	194.029	188.777	191.773	8192	-8191	8192	8192	254	
77095.500	1	1	0	0	947.537	993.271	902.819	1.16378	783.164	367.01	117.154	1135.12	1523.56	1735.62	1486.37	119.106	1225.59	676.702	307.471	2059.54	15.705	203.565	17.384	131.901	191.783	195.670	194.372	191.455	8192	-8191	8192	8192	254	
77095.547	1	1	0	0	961.568	958.898	903.23	0.852468	744.596	357.248	106.634	1140.77	1510.2	1681.56	1464.93	115.553	1215.28	686.389	303.495	2079.27	16.042	204.179	14.179	25.261	192.205	196.763	194.788	190.926	8192	-8191	8192	8192	254	
77095.594	1	1	0	0	955.214	981.862	917.731	2.00007	775.61	357.086	118.396	1115.93	1538.72	1696.96	1490.2	119.178	1226.76	689.827	320.361	2058.06	15.918	204.684	14.713	166.647	192.111	195.468	198.983	190.674	8192	-8191	8192	8192	254	
77095.641	1	1	0	0	964.843	953.793	903.752	3.20377	789.554	395.756	112.568	1155.18	1556.21	1689.47	1477.71	119.678	1229.61	716.788	314.817	2080.26	18.009	206.357	14.854	169.394	189.709	194.207	198.104	191.973	8192	-8191	8192	8192	254	
77095.695	1	1	0	0	973.087	972.445	917.301	3.83451	755.516	364.471	96.1769	1115.83	1520.62	1683.22	1479.39	129	1189.3	678.856	296.192	2043.86	17.444	203.667	14.559	347.655	190.630	195.196	193.030	190.885	8192	-8191	8192	8192	254	
77095.695	1	1	0	0	971.457	1019.71	887.203	5.66343	772.603	370.872	115.107	1102.03	1517.05	1713.73	1487.95	120.567	1223.34	698.245	317.188	2056.2	17.650	206.671	14.925	127.006	189.245	193.113	195.286	191.022	8192	-8191	8192	8192	254	
77095.742	1	1	0	0	953.353	972.434	875.25	6.24302	732.133	390.269	124.86	1141.11	1527.84	1700.36	1472.79	129.481	1212.72	727.029	334.365	2091.97	14.995	203.614	12.966	83.714	191.761	192.683	202.350	190.559	8192	-8191	8192	8192	254	
77095.789	1	1	0	0	972.006	1021.13	904.784	11.658	806.237	373.977	111.227	1134.44	1549.46	1744.97	1488.75	146.418	1255.9	721.913	325.341	2086.74	16.131	204.230	14.364	209.467	191.489	193.061	201.966	191.508	8192	-8191	8192	8192	254	
77095.836	1	1	0	0	962.379	957.685	919.069	6.97929	771.437	378.048	121.099	1117.23	1512.68	1694.16	1477.71	123.938	1219.52	708.861	312.322	2072.48	17.136	204.941	14.046	0.993	192.158	196.227	195.256	191.264	8192	-8191	8192	8192	254	
77095.906	1	1	0	0	958.467	992.121	910.069	2.34229	768.716	367.241	124.805	1132.74	1487.98	1688.42	1487.23	125.899	1226.25	701.913	307.558	2066.68	17.537	204.116	13.749	115.664	189.873	196.724	194.277	191.600	8192	-8191	8192	8192	254	
77095.953	1	1	0	0	976.731	1000.37	888.719	5.61099	764.719	375.609	121.229	1131.57	1534.21	1702.27	1479.37	112.212	1199.6	680.462	304.014	2038.58	17.115	204.842	16.818	264.076	191.092	196.385	203.543	190.260	8192	-8191	8192	8192	254	
77096.008	1	1	0	0	933.933	1016.34	892.165	7.67485	754.581	374.458	101.973	1143.3	1482.52	1716.04	1456.14	108.913	1186.37	702.221	294.298	2061.99	16.620	205.836	13.383	273.414	192.438	196.717	195.510	192.941	8192	-8191	8192	8192	254	
77096.055	1	1	0	0	987.079	1009.25	911.694	6.27768	763.356	389.671	103.038	1120.31	1529.5	1694.3	1470.22	114.361	1209.28	700.188	308.692	2058.1	16.520	204.413	13.740	226.503	189.187	196.879	206.551	191.865	8192	-8191	8192	8192	254	
77096.102	1	1	0	0	982.102	1002.7	877.265	9.5143	743.391	366.743	120.063	1168.39	1534.45	1698.47	1463.98	103.582	1194.6	690.952	308.01	2083.55	16.021	204.747	15.796	207.217	192.590	194.961	192.782	189.415	8192	-8191	8192	8192	254	
77096.148	1	1	0	0	943.285	969.313	859.806	2.12964	761.343	379.526	108.624	1097.3	1501.04	1690.58	1434.53	103.865	1186.79	683.673	295.135	2022.49	14.990	204.454	14.815	216.918	189.532	196.350	200.533	191.096	8192	-8191	8192	8192	254	
77096.195	1	1	0	0	945.614	987.447	900.548	8.41823	765.794	380.764	96.0707	1133.83	1502.37	1695.43	1475.7	108.274	1210.19	685.625	287.308	2033.35	17.827	204.845	12.792	329.041	191.125	196.655	193.308	192.431	8192	-8191	8192	8192	254	
77096.242	1	1	0	0	923.567	988.706	884.826	7.52416	753.709	380.866	123.51	1119.96	1477.23	1689.27	1465.48	108.375	1203.62	713.577	312.072	2029.22	15.156	205.000	15.705	111.862	191.555	193.513	196.003	190.258	8192	-8191	8192	8192	254	
77096.320	1	1	0	0	989.143	1007.17	880.98	6.61552	777.271	377.369	115.237	1123.74	1530.42	1701.38	1471.47	118.404	1222.09	701.784	314.692	2096.77	16.073	205.332	14.647	160.398	191.795	192.085	201.309	191.387	8192	-8191	8192	8192	254	
77096.367	1	1	0	0	997.185	965.13	892.34	5.43692	756.711	382.237	102.712	1139.67	1560.43	1709.74	1507.01	135.596	1224.99	734.514	342.106	2112.51	16.238	204.459	16.392	158.804	191.469	194.277	195.428	191.411	8192	-8191	8192	8192	254	
77096.414	1	1	0	0	975.428	982.9	929.243	11.4369	786.983	354.039	106.502	1115.11	1571.22	1716.05	1523.16	154.793	1275.45	728.312	365.745	2098.14	14.905	205.103	13.272	290.889	193.944	195.868	197.018	190.706	8192	-8191	8192	8192	254	
77096.461	1	1	0	0	921.015	964.349	917.106	6.15526	773.269	383.742	130.529	1136.42	1583.62	1754.3	1560.62	187.904	1293.46	806.043	415.663	2182.61	18.075	204.846	13.737	183.323	191.961	195.919	200.311	192.294	8192	-8191	8192	8192	254	
77096.461	1	1	0	0	944.076	955.068	881.063	3.76933	755.282	380.932	128.373	1151.59	1651.89	1825.9	1606.95	257.298	1372.39	865.966	482.106	2240.1	16.635	205.203	15.514	156.489	191.104	193.671	201.290	191.753	8192	-8191	8192	8192	254	
77096.508	1	1	0	0	967.055	1027.2	909.932	23.8538	761.316	359.638	116.618	1128.8	1708.74	1896.26	1682.77	298.812	1388.94	873.995	490.298	2262.51	15.011	206.478	14.555	329.401	190.569	194.148	199.517	191.894	8192	-8191	8192	8192	254	
77096.555	1	1	0	0	984.582	963.264	911.663	13.5337	772.482	423.855	126.157	1193.68	1718.99	1853.32	1673.7	300.428	1422.95	920.625	505.51	2380.65	16.687	206.355	15.323	85.390	192.149	192.535	203.352	189.630	8192	-8191	8192	8192	254	
77096.602	1	1	0	0	995.68	997.23	931.984	5.00333	787.585	397.997	136.18	1171.58	1771.81	1888.69	1699	312.947	1422.28	905.188	499.615	2281.67	15.644	205.601	14.248	227.131	191.845	192.305	205.929	191.925	8192	-8191	8192	8192	254	
77096.680	1	1	0	0	965.109	1009.91	906.25	13.4996	737.233	377.355	132.783	1136.14	1715	1892.37	1656.5	309.115	1394.86	896.226	521.144	2282.55	15.573	204.412	12.242	34.546	189.529	193.538	203.110	191.661	8192	-8191	8192	8192	254	
77096.727	1	1	0	0	966.043	998.545	921.919	13.268	783.558	393.756	130.998	1123.19	1720.64	1913.69	1670.1	324.476	1426.39	901.683	517.423	2242.12	16.431	205.909	15.335	119.270	190.886	196.435	190.391	191.684	8192	-8191	8192	8192	254	
77096.773	1	1	0	0	920.126	957.493	911.558	5.62169	776.389	382.855	97.7774	1110.71	1702.33	1901.34	1684.38	324.784	1419.11	912.135	534.606	2267.39	16.127	205.039	13.945	203.498	191.334	191.522	204.001	191.647	8192	-8191	8192	8192	254	
77096.820	1	1	0	0	970.956	977.855	924.846	14.6984	780.109	391.17	136.25	1100.41	1767.86	1929.78	1689.7	340.284	1456.68	928.389	541.433	2278.93	17.061	203.960	15.103	236.134	190.941	196.362	195.390	190.332	8192	-8191	8192	8192	254	
77096.867	1	1	0	0	994.023	975.675	902.165	22.1076	748.204	367.058	116.255	1119.96	1765.05	1928.96	1684.24	341.538	1406.39	919.024	538.707	2240.8	16.510	205.812	16.194	303.762	189.298	195.376	196.417	191.781	8192	-8191	8192	8192	254	
77096.914	1	1	0	0	959.412	1027.9	887.809	10.3464	707.796	347.179	92.6968	773.308	1718.72	1934.3	1668.44	329.12	1340.06	830.986	439.106	1591.71	15.520	205.352	14.177	229.014	190.629	196.720	195.717	191.044	8192	-8191	8192	8192	254	
77096.969	1	1	0	0	458.307	276.624	177.822	3.19962	73.7976	24.6371	6.1401	55.9247	890.077	645.159	465.62	169.841	280.438	219.404	172.659	260.51	15.212	206.618	6.907	326.983	186.179	206.955	160.727	195.973	8192	-8191	8192	8192	254	
77097.016	1	1	0	0	22.3513	2.9907	5.24327	3.35586	11.5555	2.2537	9.11769	13.9377	195.582	181.37	174.399	156.74	165.452	158.221	152.486	155.889	357.465	150.936	42.231	329.126	226.156	257.492	357.083	90.159	8192	-8191	8192	8192	254	
77097.086	1	1	0	0	5.92158	4.02176	9.85643	12.8117	19.9358	8.19256	28.4644	32.6656	155.572	162.495	176.293	214.072	307.87	501.788	954.236	2022.27	179.127	40.737	86.509	116.988	63.274	202.184	159.385	31.942	8192	-8191	8192	8192	254	
77097.133	1	1	0	0	48.1746	20.4579	13.4298	22.9644	19.4846	42.5256	29.8213	27.4467	4270.08	2444.59	2552.95	3005.44	3289.96	2600.78	1994.34	1070.24	208.733	329.210	221.808	192.031	256.471	167.045	225.022	215.981	8192	-8191	8192	8192	254	
77097.180	1	1	0	0	28.519	14.9477	6.28419	2.81774	17.2556	11.9211	11.8435	24.4572	644.288	674.135	703.88	718.529	707.88	719.952	722.385	1093.82	66.102	217.100	289.634	135.024	187.729	234.808	35.447	168.147	8192	-8191	8192	8192	254	
77097.227	1	1	0	0	16.7318	43.0455	60.1438	66.114	66.5237	75.9301	99.4367	22.8531	1479.04	2215.54	3146.12	4636.84	8840.95	12210.1	13499.4	12980.7	65.545	353.768	80.245	203.747	141.416	155.629	9.275	70.780	8192	-8191	8192	8192	254	
77097.227	1	1	0	0	102.013	55.867	92.3177	136.318	134.009	19.7773	56.1636	83.061	12381.8	10382	7336.94	8988.14	15844.6	13539.3	12526.8	12038.6	57.337	211.270	261.171	114.813	174.631	172.264	224.582	248.754	8192	-8191	8192	8192	254	
77097.273	1	1	0	0	110.713	92.5916	22.8953	92.8657	60.5509	64.46	19.6641	27.0137	10317.9	7002.67	3702.11	5335.25	7916.5	1882.95	990.99	544.293	286.133	308.474	226.892	119.260	2.741	306.153	88.599	118.094	8192	-8191	8192	8192	254	
77097.352	1	1	0	0	16.6148	17.1223	8.19053	7.44578	16.1193	15.0505	9.31899	17.7853	544.202	567.894	558.702	550.139	545.832	563.12	565.971	566.846	56.467	201.508	246.903	298.002	85.016	282.000	339.455	3.740	8192	-8191	8192	8192	254	
77097.398	1	1	0	0	7.41822	20.3286	22.0366	1.75513	9.14186	20.3916	12.6022	13.3263	584.846	585.293	608.38	610.034	589.188	592.837	596.356	601.442	205.948	294.990	204.270	287.331	190.023	123.378	207.324	29.622	8192	-8191	8192	8192	254	
77097.445	1	1	0	0	19.362	20.8951	7.13756	9.97907	11.6131	4.47384	18.9754	14.1099	608.673	612.606	618.678	606.947	605.534	605.284	594.245	592.096	11.500	109.807	116.077	178.368	12.538	158.778	251.610	94.873	8192	-8191	8192	8192	254	
77097.492	1	1	0	0	9.00076	14.9128	22.1107	31.1386	17.3146	11.8804	3.21971	11.2467	619.635	668.12	657.928	651.942	678.933	675.312	676.784	676.447	342.103	344.967	318.332	34.004	26.663	255.999	152.400	176.287	8192	-8191	8192	8192	254	
77097.539	1	1	0	0	3.70784	6.05961	5.17448	11.5124	25.7526	17.5079	6.92019	29.1204	671.096	688.514	698.144	683.423	679.803	695.62	704.019	691.173	85.663	280.983	99.999	36.352	202.966	217.538	323.330	232.580	8192	-8191	8192	8192	254	
77097.586	1	1	0	0	4.39473	13.0256	16.9748	24.3876	7.03931	10.0721	13.2613	2.85135	696.019	705.216	718.149	696.572	682.832	696.529	704.562	685.957	191.511	140.191	173.441	61.095	265.229	168.984	95.037	29.001	8192	-8191	8192	8192	254	
77097.633	1	1	0	0	6.86846	10.736	24.903	55.5463	96.1125	31.4708	36.6345	60.13	684.99	688.817	691.072	8143.68	9823.87	9924.72	9829.54	9912.75	268.257	8.877	341.809	90.667	76.741	129.463	341.951	203.179	8192	-8191	8192	8192	254	
77097.688	1	1	0	0	44.992	34.6378	61.9944	35.6799	61.4427	53.688	26.2079	45.8233	9873.57	9842.24	9888.67	9796.22	9723.77	9768.84	9618.76	9607.45	43.135	219.023	26.681	338.958	211.770	265.454	297.199	321.720	8192	-8191	8192	8192	254	
77097.734	1	1	0	0	98.8614	44.3484	28.2248	70.7465	87.6856	39.0301	76.7545	78.2926	9555.45	9520.07	9521	9481.15	9444.97	9408.72	9407.02	9156.96	83.071	157.546	66.222	56.279	121.300	343.360	151.185	350.008	8192	-8191	8192	8192	254	
77097.781	1	1	0	0	28.5527	61.5048	55.1284	17.0484	77.8968	44.8985	28.9076	39.3024	9187.02	9141.66	9034.4	8900.04	8924.39	8898.54	8797.46	8841.91	241.663	295.418	151.526	257.666	116.474	14.614	186.328	192.211	8192	-8191	8192	8192	254	
77097.852	1	1	0	0	25.5829	53.2371	9.91665	20.5543	31.4119	18.2597	49.5364	56.0602	8954.85	8906.24	8852.04	8883.41	8816.19	8758.79	8773.98	8703.31	9.285	229.309	76.390	326.149	247.546	281.227	50.549	147.400	8192	-8191	8192	8192	254	
77097.898	1	1	0	0	100.995	20.6731	26.6197	2.474	38.1056	5.73142	39.1185	5.22195	5799.74	1369.92	1323.36	1324.82	1327.98	1301.05	1330.38	1289.21	304.471	209.755	210.992	135.454	10.587	355.858	274.431	252.250	8192	-8191	8192	8192	254	
77097.945	1	1	0	0	6.16301	13.0432	7.47538	19.6423	14.9519	27.6853	20.1564	15.0937	1321.08	1319.47	1301.11	1325.86	1299.37	1314.24	1312.49	1305.22	1.165	28.787	278.526	308.090	225.805	350.755	258.839	77.109	8192	-8191	8192	8192	254	
77098.000	1	1	0	0	12.5599	22.934	3.38546	16.8213	4.6969	12.8502	39.1424	38.8365	1306.84	1342.97	1323.33	1311.94	1318.59	1332.13	1337.5	1334.76	33.670	105.773	172.807	84.805	150.359	237.636	284.125	259.427	8192	-8191	8192	8192	254	
77097.992	1	1	0	0	10.0746	15.8437	35.3115	18.3563	39.0895	19.1858	6.23615	13.7533	1336.84	1343.34	1385.41	1333.37	1366.67	1369.89	1398.87	1412.23	257.148	35.282	18.267	32.808	166.592	318.252	221.734	35.470	8192	-8191	8192	8192	254	
77098.047	1	1	0	0	24.8492	54.2683	20.9281	14.4458	19.5601	3.72189	6.49424	10.6494	3357.97	2619.07	962.404	450.736	321.226	266.413	227.385	225.899	132.789	320.417	317.005	104.182	18.743	12.073	319.619	53.775	8192	-8191	8192	8192	254	
77098.094	1	1	0	0	22.756	4.93069	4.36576	9.85511	6.71714	7.75972	7.76606	7.66453	234.788	222.726	216.702	221.356	218.683	205.611	206.822	194.308	247.173	63.329	340.270	352.824	270.254	228.404	221.894	43.836	8192	-8191	8192	8192	254	
77098.141	1	1	0	0	9.08654	6.87899	3.47644	5.66082	3.05526	3.15583	9.11731	16.7668	186.707	178.534	182.178	186.399	178.462	177.673	165.938	175.837	345.357	293.232	152.265	39.960	223.864	240.810	175.459	99.790	8192	-8191	8192	8192	254	
77098.211	1	1	0	0	8.66722	8.63922	8.33462	7.37846	4.32192	2.98272	6.94696	11.4569	176.913	167.486	168.51	166.981	164.481	157.096	154.346	160.096	3.670	257.992	188.914	177.301	108.135	47.133	5.967	257.440	8192	-8191	8192	8192	254	
77098.258	1	1	0	0	7.81019	8.02848	2.21191	10.0469	9.40031	1.83011	5.87023	10.2732	151.663	154.043	149.856	148.697	159.163	152.678	142.611	156.548	28.917	48.611	141.921	6.338	142.725	22.702	7.531	348.526	8192	-8191	8192	8192	254	
77098.312	1	1	0	0	2.47908	8.7089	9.80024	8.07326	48.6127	51.8819	27.7135	270.462	152.423	160.284	180.75	178.447	300.471	338.856	362.654	816.832	116.586	170.318	26.320	241.446	194.817	214.900	182.655	197.328	8192	-8191	8192	8192	254	
77098.359	1	1	0	0	267.355	251.105	234.551	15.8795	213.276	113.755	28.1687	300.022	746.668	777.726	741.106	394.591	684.659	573.385	459.745	949.317	17.332	212.782	19.032	215.686	191.268	200.967	198.269	197.840	8192	-8191	8192	8192	254	
77098.406	1	1	0	0	219.931	265.902	248.327	14.1503	201.089	118.103	31.1868	317.911	759.591	806.442	748.87	394.644	694.812	570.822	447.837	932.625	26.176	211.254	22.141	221.010	195.530	197.935	213.805	198.623	8192	-8191	8192	8192	254	
77098.453	1	1	0	0	233.918	266.779	216.659	5.79572	216.377	105.491	38.7077	320.544	743.486	801.216	725.529	374.947	682.106	531.832	424.582	914.933	27.283	212.665	15.856	69.256	197.113	193.410	212.256	196.873	8192	-8191	8192	8192	254	
77098.500	1	1	0	0	274.205	260.469	250.593	8.44224	221.989	93.7483	42.7017	348.587	733.952	770.034	708.077	349.216	653.284	498.053	381.418	908.678	20.602	204.947	20.745	296.609	194.227	199.394	207.626	196.244	8192	-8191	8192	8192	254	
77098.547	1	1	0	0	286.643	279.497	274.848	4.39107	223.677	134.883	28.1504	353.878	724.168	755.091	691.413	296.423	606.168	469.558	339.077	871.635	20.253	212.241	19.287	195.338	193.673	204.439	205.149	192.631	8192	-8191	8192	8192	254	
77098.617	1	1	0	0	265.533	279.574	261.034	17.0584	228.161	100.878	30.9723	360.377	657.481	708.486	636.115	247.923	573.279	400.077	289.385	826.082	23.933	209.849	17.269	6.875	196.323	205.539	208.211	194.526	8192	-8191	8192	8192	254	
77098.672	1	1	0	0	265.169	268.577	239.488	5.44128	227.533	118.899	41.6461	355.808	594.788	642.639	582.135	202.26	518.543	365.851	250.12	780.909	17.822	208.008	19.590	347.062	193.469	199.037	192.314	194.892	8192	-8191	8192	8192	254	
77098.719	1	1	0	0	293.498	281.083	263.074	4.25752	205.99	114.087	32.2818	295.829	591.312	614.332	556.846	153.851	456.529	317.091	197.38	697.438	23.110	210.479	21.784	202.054	200.682	195.482	207.648	197.152	8192	-8191	8192	8192	254	
77098.766	1	1	0	0	249.136	242.967	226.022	3.23905	186.265	99.4312	32.0509	303.699	508.904	539.803	471.986	129.702	404.51	268.125	162.106	628.197	21.065	206.471	19.264	213.695	196.577	198.965	182.991	195.924	8192	-8191	8192	8192	254	
77098.766	1	1	0	0	236.46	265.022	214.261	5.59423	190.556	94.2445	33.7381	309.712	448.418	498.817	436.269	102.534	392.49	251.486	164.615	617.38	25.359	210.433	18.756	17.559	195.387	193.774	237.271	194.366	8192	-8191	8192	8192	254	
77098.812	1	1	0	0	205.703	231.98	226.41	7.65516	189.04	86.9363	29.3532	306.856	439.327	482.913	438.341	109.226	388.423	246.346	157.351	614.913	24.600	209.648	19.871	221.881	197.314	195.433	193.934	197.705	8192	-8191	8192	8192	254	
77098.859	1	1	0	0	228.262	241.523	221.732	1.86182	186.723	95.6021	35.7562	304.169	439.188	486.606	433.856	105.505	372.101	263.769	158.808	621.49	21.357	213.309	22.332	230.784	198.216	203.200	193.968	199.380	8192	-8191	8192	8192	254	
77098.906	1	1	0	0	239.704	235.926	212.907	6.4299	198.916	98.1305	33.4895	295.722	445.173	484.788	421	107.99	380.375	255.971	152.841	607.067	21.568	211.925	18.775	189.598	194.008	199.970	190.115	198.867	8192	-8191	8192	8192	254	
77098.977	1	1	0	0	237.68	229.549	209.977	3.70912	199.754	92.6752	25.6241	293.195	446.875	473.221	416.846	103.63	393.236	259.524	147.673	615.091	22.845	209.327	20.337	151.963	198.579	205.572	205.908	199.153	8192	-8191	8192	8192	254	
77099.031	1	1	0	0	217.592	224.381	228.175	6.41993	198.101	92.3403	33.8274	276.48	446.173	470.264	446.611	108.264	391.793	258.327	164.154	620.438	24.786	212.287	18.919	275.820	197.062	203.630	194.214	197.029	8192	-8191	8192	8192	254	
77099.078	1	1	0	0	207.766	235.403	214.712	5.77943	177.818	96.9446	35.8554	275.44	433.288	483.591	436.894	112.817	380.755	261.231	166.808	604.933	18.116	215.369	19.654	220.042	197.983	197.518	196.483	197.042	8192	-8191	8192	8192	254	
77099.125	1	1	0	0	238.15	249.929	211.248	4.17876	188.623	111.497	30.6954	287.667	442.745	499.346	443.923	106.322	390.351	268.226	170.947	614.611	23.775	209.047	19.747	105.872	202.151	191.548	193.736	195.146	8192	-8191	8192	8192	254	
77099.172	1	1	0	0	218.024	224.344	210.25	5.81082	180.144	93.6909	21.6192	275.588	454.591	483.486	440.971	112.341	382.072	270.062	161.913	612.428	22.570	209.094	18.175	336.606	197.241	196.743	204.848	197.240	8192	-8191	8192	8192	254	
77099.219	1	1	0	0	235.636	237.924	202.048	7.20128	188.818	87.1249	38.6067	296.199	456.726	480.361	430.255	109.644	369.062	249.716	149.788	609.149	20.656	209.348	21.827	341.973	198.372	195.439	190.999	196.096	8192	-8191	8192	8192	254	
77099.297	1	1	0	0	227.22	233.228	221.885	1.10038	196.63	102.479	28.9395	302.243	420.168	463.207	420.202	101.649	384.793	250.087	158.106	619.327	22.793	215.013	24.583	350.681	197.608	197.137	213.157	196.291	8192	-8191	8192	8192	254	
77099.344	1	1	0	0	220.822	241.12	214.868	4.58144	194.211	93.2686	38.5561	286.575	433.572	465.654	426.812	109.327	380.404	255.909	156.745	593.668	23.989	209.213	19.966	241.198	195.105	206.011	210.887	195.707	8192	-8191	8192	8192	254	
77099.391	1	1	0	0	224.014	253.014	201.001	1.2228	201.126	107.385	30.2069	295.016	429.558	474.351	435.154	109.327	392.197	261.591	163.264	621.49	19.952	211.391	21.751	146.752	192.029	193.639	205.978	196.750	8192	-8191	8192	8192	254	
77099.438	1	1	0	0	221.964	233.392	221.415	11.1825	183.806	100.078	34.7674	323.914	441.99	491.495	434.288	109.49	386.471	258.62	166.361	638.317	23.679	204.208	21.265	349.380	199.077	197.332	207.463	195.606	8192	-8191	8192	8192	254	
77099.484	1	1	0	0	226.82	228.346	211.977	7.35825	192.771	98.0731	38.8881	295.604	446.654	498.755	440.726	115.865	387.514	276.264	173.952	622.317	24.891	209.011	21.643	309.212	196.129	192.706	194.692	196.132	8192	-8191	8192	8192	254	
77099.531	1	1	0	0	239.5	231.475	189.618	10.1603	163.788	102.941	25.9753	282.434	443.442	490.952	433.808	119.841	389.707	274.125	170.875	622.212	24.907	209.835	20.376	223.106	202.759	197.459	191.544	195.307	8192	-8191	8192	8192	254	
77099.531	1	1	0	0	221.979	235.741	229.759	5.77221	195.03	110.099	32.7716	286.796	445.438	487.779	450.596	115.553	377.774	273.957	162.62	616.216	22.873	212.009	21.828	168.621	193.942	202.915	210.360	197.906	8192	-8191	8192	8192	254	
77099.578	1	1	0	0	207.992	244.596	219.351	5.18605	202.478	109.282	35.8744	310.732	440.284	491.495	443.447	100.284	385.274	261.462	161.865	612.178	18.236	213.575	19.382	241.409	194.171	204.082	176.053	196.143	8192	-8191	8192	8192	254	
77099.656	1	1	0	0	231.51	247.444	212.057	1.26526	191.459	103.333	29.0752	294.816	432.659	478.394	429.909	105.995	368.149	256.053	156.966	604.01	24.373	209.936	18.786	95.648	198.926	200.480	192.844	194.667	8192	-8191	8192	8192	254	
77099.703	1	1	0	0	233.581	228.089	208.579	7.60196	178.732	103.561	30.8728	282.659	427.428	464.591	428.625	99.2115	364.115	255.966	149.385	592.442	22.192	211.071	25.774	325.681	199.379	200.914	192.749	194.037	8192	-8191	8192	8192	254	
77099.750	1	1	0	0	216.729	232.791	205.765	12.6375	176.377	96.0404	40.8847	288.396	422.63	471.774	419.788	100.197	363	250.918	152.918	612.005	21.547	211.771	18.707	324.089	199.217	198.190	193.135	196.325	8192	-8191	8192	8192	254	
77099.797	1	1	0	0	229.363	241.135	213.736	7.50193	197.304	102.12	38.388	319.153	423.029	463.351	420.221	100.279	378.404	262.51	150.255	610.851	25.171	213.161	18.450	352.156	197.850	204.265	193.105	194.589	8192	-8191	8192	8192	254	
77099.844	1	1	0	0	234.104	226.842	206.829	11.064	188.262	96.5316	27.4153	291.384	430.659	464.659	409.312	98.4952	375.591	245.067	150.918	610.966	24.538	212.529	25.475	86.368	199.648	207.611	206.391	194.264	8192	-8191	8192	8192	254	
77099.891	1	1	0	0	221.161	202.174	232.338	5.40214	193.127	106.099	26.3774	289.332	418.731	441.24	431.63	100.438	366.149	247.74	141.558	597.168	24.503	210.369	17.633	91.413	195.285	191.505	230.921	196.713	8192	-8191	8192	8192	254	
77099.938	1	1	0	0	231.616	218.092	216.736	1.93957	178.127	99.3519	30.7631	285.497	427.495	473.005	416.894	102.721	377.144	248.529	154.683	591.255	23.085	209.729	17.749	170.056	197.008	199.057	197.504	196.790	8192	-8191	8192	8192	254	
77099.992	1	1	0	0	236.392	228.44	203.62	9.70638	192.036	93.7497	29.8613	298.64	447.115	470.192	413.389	102.245	377.144	252.918	158.375	599.99	22.173	205.170	21.011	291.247	195.358	194.687	195.063	192.192	8192	-8191	8192	8192	254	
77100.062	1	1	0	0	250.311	225.029	208.587	6.13557	193.013	100.334	40.4149	286.857	452.683	463.202	425.356	106.692	380.428	254.851	170.721	605.514	19.521	212.480	19.129	236.589	197.541	202.689	210.935	194.727	8192	-8191	8192	8192	254	
77100.109	1	1	0	0	242.47	223.375	215.176	4.97119	184.547	92.2528	23.6021	299.747	446.885	467.183	425.51	104.63	381.889	251.909	162.019	606.178	21.110	208.538	20.202	213.200	196.502	200.085	191.407	196.684	8192	-8191	8192	8192	254	
77100.156	1	1	0	0	234.032	232.2	198.185	8.35494	207.814	89.4342	25.6955	284.623	439.332	472.212	426.692	110.538	392.428	239.245	147.519	600.077	24.654	210.573	20.963	163.742	197.935	201.456	216.847	196.130	8192	-8191	8192	8192	254	
77100.203	1	1	0	0	214.228	236.278	207.275	10.3642	192.567	96.6525	28.9924	272.352	427.087	479.899	416.154	98.1538	372.769	254.01	148.952	587.495	24.689	209.380	21.689	324.098	203.570	201.893	187.725	193.970	8192	-8191	8192	8192	254	
77100.250	1	1	5	0	211.055	225.553	224.099	4.58307	166.732	92.2319	40.139	302.569	425.663	469.774	432.962	97.351	359.962	241.303	153.76	596.88	18.947	213.243	20.723	149.090	193.687	192.462	202.626	200.408	8192	-8191	8192	8192	254	
77100.297	1	1	0	0	217.314	227.834	219.171	2.13803	176.583	103.852	37.5493	281.754	439.976	462.625	408.029	101.995	359.442	253.774	149.361	587.082	22.452	211.008	21.190	239.367	198.194	195.697	202.852	197.506	8192	-8191	8192	8192	254	
77100.305	1	1	0	0	220.434	222.886	203.889	5.68535	183.494	108.703	37.8114	309.209	428.683	463.356	413.625	91.0913	368.495	249.625	140.322	588.322	22.233	208.027	23.769	336.608	194.344	195.549	202.950	193.289	8192	-8191	8192	8192	254	
77100.352	1	1	0	0	216.662	232.798	213.222	6.96627	201.384	94.6741	31.3822	283.129	407.279	420.442	377.12	48.5433	321.808	185.832	92.8654	531.76	22.245	211.434	19.380	131.793	198.867	194.907	205.004	197.355	8192	-8191	8192	8192	254	
77100.398	1	1	0	0	216.258	218.045	209.698	5.04795	180.477	101.16	29.4704	270.192	356.851	402.034	356.337	41.024	310.721	189.837	89.3029	534.014	21.466	211.504	17.176	46.558	200.932	196.465	196.283	194.332	8192	-8191	8192	8192	254	
77100.445	1	1	0	0	224.2	238.687	211.611	5.01706	187.705	99.0493	28.2371	293.521	363.62	403.957	364.264	40.2548	310.668	193.731	92.0529	541.567	21.974	208.749	19.850	148.366	197.091	202.438	216.605	194.456	8192	-8191	8192	8192	254	
77100.516	1	1	0	0	221.048	225.102	211.403	3.47273	186.536	95.1838	26.4273	284.472	371.476	404.24	362.466	43.9808	318.577	197.832	101.572	544.812	19.444	213.528	19.611	330.270	194.327	199.330	204.465	198.420	8192	-8191	8192	8192	254	
77100.562	1	1	0	0	215.919	210.589	195.812	5.85616	182.396	87.5409	25.7664	298.536	391.365	425.548	387.952	82.9615	357.861	227.76	141.904	589.635	22.411	212.411	22.339	189.736	196.465	204.904	208.652	196.869	8192	-8191	8192	8192	254	
77100.609	1	1	0	0	224.273	223.814	187.764	2.47428	192.024	86.2134	32.0172	307.141	432.067	460.207	418.399	102.971	373.793	240.822	159.053	617.135	21.591	213.360	22.510	130.002	194.640	198.475	205.957	197.633	8192	-8191	8192	8192	254	
77100.656	1	1	0	0	224.971	225.735	230.694	10.9065	172.089	83.4504	32.2026	297.595	439.466	489.221	451.423	126.808	392.976	287.466	185.288	642.606	20.739	210.976	16.337	254.582	197.129	205.252	189.942	196.719	8192	-8191	8192	8192	254	
77100.711	1	1	0	0	219.028	237.117	215.831	9.32539	192.085	106.023	39.3054	280.388	464.74	503.966	445.351	121.365	394.418	263.62	166.5	612.053	24.812	211.317	17.810	157.455	199.933	197.412	195.377	201.376	8192	-8191	8192	8192	254	
77100.758	1	1	0	0	212.996	227.808	210.671	3.11804	191.228	90.3704	32.5972	303.56	423.808	457.298	411.587	98.4615	362.5	236.611	135.101	589.812	26.506	210.782	20.247	143.513	192.690	197.353	207.186	196.453	8192	-8191	8192	8192	254	
77100.805	1	1	0	0	215.771	217.101	205.208	5.97815	183.579	92.8819	31.6532	290.879	410.346	441.832	388.51	79.1875	351.529	232.168	132.986	576.899	21.374	211.937	16.146	292.114	194.464	199.171	212.780	196.222	8192	-8191	8192	8192	254	
77100.852	1	1	0	0	212.618	219.428	203.194	3.78213	188.365	98.9553	24.4739	287.218	405.168	445.971	392.072	89.0048	347.75	225.764	122.327	568.644	23.964	209.571	20.838	17.011	198.730	207.217	200.290	197.731	8192	-8191	8192	8192	254	
77100.922	1	1	0	0	220.54	217.062	191.631	3.84003	177.808	99.7283	33.0369	274.726	395.856	436.644	372.375	66.4712	316.486	218.639	114.048	538.005	24.452	211.158	18.999	327.626	195.792	193.945	209.951	198.130	8192	-8191	8192	8192	254	
77100.977	1	1	0	0	215.425	219.369	200.372	3.9158	191.924	96.4136	34.1716	288.428	376.962	403.13	364.091	50.0962	317.764	194.385	103.361	531.51	21.384	211.202	19.280	261.724	199.128	200.784	218.872	199.223	8192	-8191	8192	8192	254	
77101.023	1	1	0	0	224.638	226.189	210.97	7.63869	190.503	90.4775	25.3776	283.567	374.029	414.37	358.625	45.4712	311.139	190.423	92.3269	532.822	20.419	209.768	17.658	207.121	194.832	203.635	210.132	196.912	8192	-8191	8192	8192	254	
77101.070	1	1	0	0	218.341	235.649	224.049	4.82414	181.223	96.1843	22.6616	278.875	371.702	407.74	366.144	46.851	311.274	193.019	89.2404	535.202	20.387	213.496	21.629	39.684	197.257	196.670	212.460	195.296	8192	-8191	8192	8192	254	
77101.070	1	1	0	0	215.094	222.702	217.627	2.20203	175.047	88.6752	18.0501	267.8	367.26	412.995	366.029	46.0721	311.625	191.966	93.3077	538.529	17.954	213.312	22.904	246.257	193.020	201.607	222.768	196.991	8192	-8191	8192	8192	254	
77101.117	1	1	0	0	221.203	213.402	218.706	3.94407	194.511	107.656	33.1734	281.611	378.534	402.034	367.202	44.3942	314.5	202.197	93.3317	546.543	23.982	206.838	20.649	328.512	197.047	202.395	202.582	195.569	8192	-8191	8192	8192	254	
77101.188	1	1	0	0	216.467	228.501	196.517	3.21253	188.74	102.935	22.3037	289.499	360.928	411.471	350.135	45.8365	317.038	203.413	100.317	551.534	23.412	215.113	20.241	229.553	197.356	195.604	209.797	193.617	8192	-8191	8192	8192	254	
77101.234	1	1	0	0	217.234	235.88	214.972	6.43665	182.445	93.4141	36.075	307.676	367.803	409.562	364.596	47.1971	315.413	200.159	105.649	554.567	22.813	206.826	17.347	115.662	200.358	197.153	204.183	193.817	8192	-8191	8192	8192	254	
77101.281	1	1	0	0	233.26	238.508	212.19	6.97996	178.955	99.7471	27.9082	299.598	374.933	410.986	370.635	49.4423	316.933	192.721	91.2885	547.625	25.242	204.583	24.781	332.467	198.489	203.668	189.433	197.495	8192	-8191	8192	8192	254	
77101.336	1	1	0	0	220.302	231.965	202.659	4.51486	177.29	91.7976	23.2795	303.656	380.048	421.495	376.163	50.1779	317.812	195.553	95.399	548.207	20.993	211.319	19.953	9.837	200.443	196.436	200.562	196.340	8192	-8191	8192	8192	254	
77101.383	1	1	0	0	236.596	243.324	195.491	9.93163	201.869	93.1815	33.8824	273.188	386.784	430.067	356.577	56.0337	338.812	202.13	97.7692	541.918	20.480	210.719	24.080	117.670	197.213	201.588	189.296	193.986	8192	-8191	8192	8192	254	
77101.430	1	1	0	0	237.988	228.4	220.204	9.78756	178.892	90.1863	30.544	298.374	384.865	417.803	371.591	47.9327	319.149	196.144	101.99	566.322	22.213	212.538	19.945	57.795	192.294	201.728	192.550	198.452	8192	-8191	8192	8192	254	
77101.477	1	1	0	0	217.503	236.886	213.259	2.72287	186.757	111.297	25.3412	302.542	374.62	426.788	378.159	48.0913	309.115	206.26	96.9471	559.779	21.799	209.929	18.556	198.582	193.945	201.498	203.691	196.512	8192	-8191	8192	8192	254	
77101.523	1	1	0	0	231.991	221.515	211.386	7.2276	193.113	100.573	27.4834	284.006	390.067	417.861	372.322	51.0144	328.452	194.087	102.731	560.683	23.011	207.026	16.983	289.030	195.747	195.124	208.405	197.487	8192	-8191	8192	8192	254	
77101.570	1	1	0	0	232.549	216.422	210.834	2.41537	174.679	95.4876	35.5849	282.636	387.553	409.697	363.683	51.375	319.438	202.221	101	545.995	18.154	210.380	21.245	262.361	194.819	194.629	203.144	194.445	8192	-8191	8192	8192	254	
77101.617	1	1	0	0	232.343	233.189	213.763	4.55981	178.141	89.0619	25.2765	299.347	387.981	417.933	362.861	52.7644	319.861	195.106	104.471	560.322	23.121	208.621	22.048	343.603	198.975	198.755	204.004	191.657	8192	-8191	8192	8192	254	
77101.695	1	1	0	0	238.795	234.05	197.938	3.83379	203.343	88.2093	29.4773	275.68	382.731	429.639	367.159	54.8702	332.442	197.014	96.4904	547.399	19.528	210.655	20.223	210.756	196.429	197.240	208.791	196.231	8192	-8191	8192	8192	254	
77101.742	1	1	0	0	235.994	210.313	195.607	4.65455	189.23	101.376	30.7677	282.885	383.942	407.553	355.091	53.4231	325.856	201.014	94.9423	548.649	19.571	210.862	22.603	350.863	196.280	201.187	211.792	194.923	8192	-8191	8192	8192	254	
77101.789	1	1	0	0	221.28	236.726	221.22	4.57119	183.478	89.5598	24.7131	289.507	375.514	416.644	371.62	46.8606	326.303	199.611	100.12	554.12	23.379	211.461	20.284	104.305	194.016	204.568	208.563	197.770	8192	-8191	8192	8192	254	
77101.836	1	1	0	0	218.418	219.137	205.486	3.36142	193.061	90.1262	39.5109	286.812	377.346	411.264	366.74	51.1923	321.615	196.697	102.308	550.909	22.248	209.643	16.678	336.912	196.217	197.418	210.744	195.981	8192	-8191	8192	8192	254	
77101.836	1	1	0	0	234.639	230.123	195.99	2.0968	190.203	90.934	24.2159	291.473	383.062	410.952	357.495	53.4327	317.606	212.543	99.476	544.471	24.411	210.090	21.064	357.608	198.734	200.450	212.066	197.498	8192	-8191	8192	8192	254	
77101.883	1	1	0	0	222.69	233.438	210.687	4.55854	182.813	101.407	31.79	297.614	379.168	424.962	360.942	50.2885	319.572	205.567	111.308	550.144	20.057	209.445	21.778	311.667	197.190	205.225	198.469	193.505	8192	-8191	8192	8192	254	
77101.930	1	1	0	0	229.746	216.211	206.562	4.87437	186.823	96.4069	37.1883	298.563	387.76	420.817	368.654	52.6298	326.678	200.962	112.019	562.322	21.818	210.148	21.505	287.720	197.755	199.819	196.206	195.392	8192	-8191	8192	8192	254	
77101.984	1	1	0	0	222.009	231.953	199.378	1.72288	184.631	96.964	30.6702	295.5	392.49	429.562	385.649	63.6971	338.173	227.909	118.803	569.106	21.523	214.689	19.565	140.139	198.350	201.350	197.228	196.631	8192	-8191	8192	8192	254	
77102.055	1	1	0	0	229.719	231.517	198.68	8.02024	195.918	92.7927	25.7482	288.598	406.596	431.673	385.38	80.9279	348.202	228.139	141.356	587.135	20.463	208.847	20.044	315.747	196.557	199.231	197.017	194.302	8192	-8191	8192	8192	254	
77102.102	1	1	0	0	211.077	246.173	221.661	4.84008	180.534	92.469	38.725	305.13	394.558	455.183	409.519	74.976	333.668	234.048	129.635	587.423	23.092	210.749	20.993	295.399	194.631	198.512	197.657	196.986	8192	-8191	8192	8192	254	
77102.148	1	1	0	0	216.88	211.151	201.974	4.23654	186.201	106.636	36.4096	278.251	406.678	428.038	383.889	79.5048	352.529	235.149	131.697	583.817	18.716	206.351	25.833	137.197	198.709	201.737	199.163	199.550	8192	-8191	8192	8192	254	
77102.195	1	1	0	0	238.255	222.66	213.814	3.85707	201.487	88.2414	27.9028	303.178	419.726	441.933	401.543	75.3894	362	229.788	133.899	593.745	23.069	209.830	20.090	47.720	199.319	199.594	219.320	193.827	8192	-8191	8192	8192	254	
77102.242	1	1	0	0	219.624	221.854	211.877	7.46757	195.965	101.31	25.1472	285.956	403.663	443.99	392.966	77.851	356.135	232.149	128.649	572.947	21.783	211.790	20.402	156.350	199.562	200.372	193.299	196.848	8192	-8191	8192	8192	254	
77102.297	1	1	0	0	228.571	207.842	218.879	4.02516	170.976	96.2538	36.4161	275.147	410.418	436.913	406.942	72.5913	343.135	228.87	128.183	573.635	17.854	210.160	22.785	66.391	197.492	199.885	208.248	194.539	8192	-8191	8192	8192	254	
77102.344	1	1	0	0	231.181	205.458	216.034	4.41031	169.257	100.769	32.2204	288.973	404.192	425.678	404.995	74.8558	338.029	240.01	129.788	582.159	22.474	210.143	21.746	13.900	195.171	204.862	212.302	198.569	8192	-8191	8192	8192	254	
77102.391	1	1	0	0	212.382	227.005	219.461	7.96308	180.991	102.501	33.1425	291.04	415.462	446.486	405	83.8702	342.51	227.606	129.678	569.269	20.288	207.065	23.294	259.633	194.129	196.291	201.104	195.593	8192	-8191	8192	8192	254	
77102.461	1	1	0	0	225.825	218.275	193.835	1.94471	182.363	87.617	29.8976	287.584	403.851	439.12	391.423	69.9904	336.688	212.755	118.519	558.971	19.493	211.725	22.456	60.690	199.114	201.423	201.808	195.582	8192	-8191	8192	8192	254	
77102.508	1	1	0	0	222.009	237.669	218.059	2.0152	182.503	96.0106	24.1937	284.778	380.736	434.764	381.178	53.0721	313.543	192.51	97.5433	543.966	20.641	212.494	17.669	304.713	194.222	202.458	193.848	197.289	8192	-8191	8192	8192	254	
77102.555	1	1	0	0	214.525	226.344	207.334	1.22221	186.649	91.1508	34.075	292.666	383.692	408.63	372.163	47.4904	321.351	190.447	102.284	546.721	23.693	211.567	20.946	114.556	195.579	196.459	195.297	199.081	8192	-8191	8192	8192	254	
77102.602	1	1	0	0	224.079	242.531	204.599	3.31175	190.097	91.4824	32.6631	292.769	372.591	413.087	355.457	46.3654	313.524	190.433	104.111	545.755	21.216	213.523	21.737	308.899	195.935	197.204	211.119	197.888	8192	-8191	8192	8192	254	
77102.602	1	1	0	0	220.291	219.248	202.397	5.37061	205.426	98.3139	37.9995	303.746	374.971	403.053	363.947	44.5962	315.067	190.337	102.534	554.298	21.405	211.113	21.122	299.025	192.394	194.032	204.342	197.011	8192	-8191	8192	8192	254	
77102.656	1	1	0	0	233.477	227.802	200.538	1.41121	193.792	88.9941	32.8899	297.51	379.615	407.159	361.63	47.7212	317.495	193.202	98.274	562.611	24.172	217.504	17.357	162.269	196.120	203.218	191.927	197.825	8192	-8191	8192	8192	254	
77102.703	1	1	0	0	228.457	240.241	201.729	4.45156	189.871	93.2036	31.2795	292.677	384.553	419.37	361.889	43.3654	313.236	196.322	96.5529	548.957	22.432	208.335	21.885	319.170	198.022	194.266	201.084	195.033	8192	-8191	8192	8192	254	
77102.750	1	1	0	0	218.918	224.933	198.812	1.58428	181.72	88.7341	31.1875	280.278	369.827	412.149	355.058	45.6442	314.577	190.058	93.9904	522.144	22.395	208.661	17.056	166.476	197.441	199.075	200.931	193.306	8192	-8191	8192	8192	254	
77102.820	1	1	0	0	226.775	219.562	229.12	1.76559	189.818	104.201	29.5147	275.282	376.288	412.317	362.317	46.2596	310.774	189.135	95.2115	529.923	20.514	212.559	22.312	108.108	196.439	204.757	203.199	198.028	8192	-8191	8192	8192	254	
77102.867	1	1	0	0	218.754	220.368	212.87	4.0336	200.926	105.236	31.7506	279.41	381.019	393.923	363.731	44.649	332.322	197.562	97.8317	548.255	21.281	212.402	19.434	172.927	198.166	205.546	195.462	192.324	8192	-8191	8192	8192	254	
77102.914	1	1	0	0	228.285	223.479	210.711	3.23429	173.944	111.18	30.1541	278.188	374.74	411.529	364.327	45.1587	309.534	197.394	101.106	530.341	23.665	212.102	21.893	136.664	195.226	202.607	211.782	196.505	8192	-8191	8192	8192	254	
77102.969	1	1	0	0	221.46	220.971	227.242	3.37511	176.698	104.817	27.7942	281.767	371.216	409.125	367.428	48.226	304.986	198.798	98.8894	535.889	22.997	210.985	19.977	241.609	198.973	201.587	194.239	198.030	8192	-8191	8192	8192	254	
77103.016	1	1	0	0	225.468	231.98	220.487	5.82158	182.433	84.927	31.0609	294.124	374.091	404.101	361.409	48.3654	313.933	189.356	99.9904	554.279	20.743	212.392	18.373	85.444	197.833	195.477	212.705	194.806	8192	-8191	8192	8192	254	
77103.062	1	1	0	0	224.052	224.926	216.74	3.563	177.661	100.595	29.1614	294.38	379.188	413.947	360.019	46.774	313.077	194.26	104.591	558.688	21.126	209.223	21.183	172.846	194.901	198.195	219.973	194.312	8192	-8191	8192	8192	254	
77103.109	1	1	0	0	213.734	214.017	214.769	2.37993	179.166	94.1522	31.5207	285.447	376.24	405.226	367.385	46.899	313.688	195.976	97.2548	549.827	22.787	210.539	18.460	55.871	194.114	202.543	192.777	198.186	8192	-8191	8192	8192	254	
77103.156	1	1	0	0	214.637	231.724	219.566	2.49807	186.666	71.984	31.4136	286.885	372.231	415.702	367.308	45.1154	322.048	195.264	97.8269	543.51	25.925	209.162	20.459	34.910	197.080	193.034	198.353	197.743	8192	-8191	8192	8192	254	
77103.227	1	1	0	0	208.39	225.646	221.659	6.90618	198.737	101.322	29.9957	280.676	361.062	421.159	379.913	49.2548	322.361	197.562	96.125	537.659	19.546	210.481	19.972	76.175	194.499	197.363	205.464	196.378	8192	-8191	8192	8192	254	
77103.273	1	1	0	0	221.57	218.459	214.732	4.94475	194.197	90.1288	30.7726	277.586	377.471	416.731	367.558	46.2404	314.288	194.938	92.9712	554.611	23.556	211.649	17.830	156.890	196.847	208.698	191.106	194.278	8192	-8191	8192	8192	254	
77103.328	1	1	0	0	211.332	209.107	212.621	5.94076	186.034	96.695	29.1035	292.614	375.755	394.678	370.476	51.8413	320.361	193.236	97.2548	553.611	21.591	212.112	18.502	338.478	199.891	197.685	194.519	197.971	8192	-8191	8192	8192	254	
77103.375	1	1	0	0	234.806	225.376	201.704	2.95075	199.825	95.1209	35.8415	294.118	372.159	406.534	361.779	50.4904	327.067	199.192	98.3413	548.351	24.336	213.877	21.929	160.716	195.870	202.024	205.319	201.227	8192	-8191	8192	8192	254	
77103.375	1	1	0	0	213.673	236.568	222.633	4.314	181.601	100.082	34.8918	292.212	365.389	424.471	366.423	46.899	307.611	197.76	100.37	551.168	23.518	212.151	23.750	168.443	197.394	201.484	205.261	192.184	8192	-8191	8192	8192	254	
77103.422	1	1	0	0	222.512	216.452	202.019	3.9639	192.757	86.7797	23.8951	286.222	375.928	407.654	360.236	45.351	327.572	191.159	99.8846	546.038	22.215	211.306	18.978	175.965	200.326	204.411	217.627	194.623	8192	-8191	8192	8192	254	
77103.492	1	1	0	0	235.411	219.567	197.707	6.06739	190.949	90.2432	25.6265	296.906	387.279	414.659	360.947	51.7115	323.635	199.25	93.4327	552.346	23.117	210.141	16.316	207.410	198.801	199.310	197.273	195.497	8192	-8191	8192	8192	254	
77103.539	1	1	0	0	214.018	220.563	207.43	1.85663	203.827	97.8739	26.4825	304.392	380.538	409.115	350.947	44.1875	331.553	198.058	92.9712	557.899	23.880	210.841	16.087	56.855	195.284	198.642	224.043	196.099	8192	-8191	8192	8192	254	
77103.586	1	1	0	0	219.187	231.641	212.235	5.25661	196.396	83.56	25.5841	279.987	373.077	413.582	366.827	47.7788	325.207	193.212	95.1058	544.231	25.555	207.378	20.451	199.259	201.270	197.531	193.542	197.694	8192	-8191	8192	8192	254	
77103.641	1	1	0	0	219.097	234.737	195.952	2.19635	198.598	93.506	35.3847	279.2	383.51	406.798	349.75	48.2692	314.639	194.712	97.7548	537.37	19.907	208.568	18.199	44.036	198.685	197.743	205.190	196.363	8192	-8191	8192	8192	254	
77103.688	1	1	0	0	208.572	243.802	199.236	3.46297	196.977	100.491	29.3371	281.931	375.442	418.683	362.413	45.375	327.764	197.986	96.899	549.476	21.880	211.320	21.330	279.763	197.732	199.916	198.025	199.201	8192	-8191	8192	8192	254	
77103.734	1	1	0	0	230.978	224.025	210.62	7.62345	202.923	89.769	36.8437	294.943	383.245	409.865	370.99	50.5144	334.255	195.981	103.322	562.163	21.877	211.650	17.173	269.773	195.349	198.049	201.407	200.433	8192	-8191	8192	8192	254	
77103.781	1	1	0	0	219.512	200.753	221.111	2.69507	194.057	100.271	29.3864	283.469	369.452	400.034	366.736	46.0144	328.971	202.875	96.1587	538.668	23.590	206.951	24.576	172.168	195.115	203.768	195.406	194.660	8192	-8191	8192	8192	254	
77103.828	1	1	0	0	221.768	219.113	204.684	5.13755	191.344	86.9545	30.7158	295.37	386.226	404.567	361.99	50.476	316.135	194.611	97.1779	553.981	20.584	214.212	18.584	78.801	197.839	199.727	206.245	198.338	8192	-8191	8192	8192	254	
77103.898	1	1	0	0	237.236	228.295	213.413	4.06077	184.694	96.8289	26.1817	288.07	391.125	419.091	369.26	49.2644	323.428	193.519	95.8317	544.072	22.381	209.596	19.013	251.864	197.250	203.198	207.456	196.879	8192	-8191	8192	8192	254	
77103.953	1	1	0	0	212.678	224.096	221.954	3.98919	201.701	107.596	40.4998	293.274	371.716	411.466	377.553	49.9375	326.808	201.755	107.067	541.428	17.826	210.662	17.774	341.287	197.458	198.367	199.227	198.874	8192	-8191	8192	8192	254	
77104.000	1	1	6	0	222.776	223.99	206.904	2.72802	188.757	93.2919	31.7299	294.976	370.255	406.505	365.62	43.149	318.913	191.111	96.5433	546.428	20.811	211.261	23.349	67.495	194.390	201.781	191.657	198.943	8192	-8191	8192	8192	254	
77104.047	1	1	0	0	224.734	219.294	204.207	4.20206	177.591	103.41	31.8383	290.873	372.486	407.87	356.707	50.2404	318.904	193.255	98.5913	540.986	21.655	206.713	21.646	242.324	195.138	198.008	205.724	200.331	8192	-8191	8192	8192	254	
77104.094	1	1	0	0	230.077	223.14	196.686	5.5837	192.589	100.112	33.6758	253.128	381.697	404.745	361.524	43.5673	316.88	205.149	99.976	511.51	22.243	207.472	20.678	34.676	198.276	198.434	210.407	195.982	8192	-8191	8192	8192	254	
77104.141	1	1	0	0	236.424	227.779	213.947	3.22586	192.3	109.356	22.5743	302.354	373.351	411.38	365.207	50.0529	317.981	193.548	95.5433	535.947	20.935	209.844	18.020	106.456	197.177	200.127	191.818	191.841	8192	-8191	8192	8192	254	
77104.141	1	1	0	0	235.968	237.94	206.691	1.8479	193.69	83.4789	24.4337	298.898	381.303	418.12	368.322	46.8942	318.303	193.591	93.7212	548.644	20.496	209.933	19.671	32.137	195.617	199.074	203.528	196.851	8192	-8191	8192	8192	254	
77104.188	1	1	0	0	215.585	240.403	207.346	4.08546	192.014	92.5228	34.9468	277.771	367.005	415.183	365.572	48.4808	317.505	194.75	92.5144	544.303	20.856	209.292	19.030	217.937	196.013	207.106	204.302	196.148	8192	-8191	8192	8192	254	
77104.234	1	1	0	0	224.548	219.56	232.288	4.35198	176.147	99.7223	37.6474	277.311	375.519	407.279	369.726	48.5481	308.87	207.072	97.25	554.101	23.259	211.901	16.114	112.932	195.614	206.425	202.501	198.479	8192	-8191	8192	8192	254	
77104.281	1	1	0	0	233.909	237.839	214.262	3.10947	189.967	106.97	29.999	287.618	380.75	418.784	361.072	54.4375	330.889	210.524	110.423	570.115	19.701	210.550	17.987	306.967	197.715	193.542	203.983	197.055	8192	-8191	8192	8192	254	
77104.359	1	1	0	0	223.898	216.033	214.961	2.30369	168.793	93.7129	37.9609	292.121	382.736	425.043	396.26	79.8702	346.01	235.933	140.774	589.389	20.596	212.570	21.705	255.632	194.995	195.024	219.876	197.310	8192	-8191	8192	8192	254	
77104.406	1	1	0	0	223.886	239.523	222.339	6.74098	188.344	112.473	34.0515	282.311	416.096	456.178	409.13	88.4952	366.562	242.663	144.659	598.894	23.234	214.205	23.617	37.210	196.503	200.781	204.021	195.759	8192	-8191	8192	8192	254	
77104.453	1	1	0	0	220.251	219.742	196.84	6.45517	196.543	91.8083	34.7579	296.327	418.38	466.702	414.899	106.861	375.385	254.279	171.096	610.144	18.817	210.762	19.837	347.832	193.958	201.567	208.943	194.387	8192	-8191	8192	8192	254	
77104.500	1	1	0	0	241.045	233.858	218.116	7.58378	185.251	95.6675	30.127	298.996	461.438	482.24	429.534	119.851	397.365	277.312	172.885	631.841	20.997	207.391	19.442	119.176	197.062	205.356	194.619	196.507	8192	-8191	8192	8192	254	
77104.547	1	1	0	0	206.969	235	225.443	10.7216	217.697	110.154	37.6798	296.452	445.962	488.226	458.913	134.76	417.385	288.861	182.846	635	20.517	212.793	24.102	97.514	199.317	192.481	209.433	196.352	8192	-8191	8192	8192	254	
77104.594	1	1	0	0	229.318	219.355	206.971	7.7878	179.269	94.27	26.953	288.554	452.038	496.688	454.577	123.029	395.514	276.62	177.034	614.125	20.109	214.410	18.789	174.852	197.696	195.145	221.086	195.481	8192	-8191	8192	8192	254	
77104.648	1	1	0	0	234.116	214.192	204.855	8.83414	191.789	107.952	35.5835	272.641	454.851	487.476	436.375	122.803	403	264.481	164.529	597.889	21.227	210.165	24.810	305.421	195.797	200.937	211.752	197.073	8192	-8191	8192	8192	254	
77104.695	1	1	0	0	225.145	219.076	193.499	9.82755	177.508	92.8529	21.1661	297.309	455.673	468.913	437.332	112.293	391.639	259.365	158.779	613.197	18.473	211.764	17.162	27.481	200.312	193.551	191.546	195.586	8192	-8191	8192	8192	254	
77104.766	1	1	0	0	219.189	226.384	203.661	3.91406	172.058	104.559	23.202	287.46	441.596	468.486	418.471	113.659	371.841	266.178	160.918	614.712	22.877	206.968	21.082	145.283	201.431	202.419	178.904	193.713	8192	-8191	8192	8192	254	
77104.812	1	1	0	0	215.794	234.291	221.198	4.3493	170.784	87.2215	29.2144	301.107	431.553	481.966	428.346	104.317	377.865	253.558	159.082	614.255	22.977	209.454	19.391	53.537	195.392	203.233	192.784	198.018	8192	-8191	8192	8192	254	
77104.859	1	1	0	0	229.814	235.623	225.72	7.37159	191.806	96.4188	31.8332	269.841	453.365	484.212	425.115	107	388	262.654	159.216	589.572	22.027	209.239	19.114	231.787	196.739	206.261	222.031	194.736	8192	-8191	8192	8192	254	
77104.906	1	1	0	0	222.926	230.019	210.961	2.1783	184.039	96.8382	36.5803	282.697	426.216	465.702	416.457	108.226	384.721	256.995	174.024	594.38	20.736	216.693	19.013	81.549	192.860	204.796	203.785	197.071	8192	-8191	8192	8192	254	
77104.906	1	1	0	0	238.939	230.38	208.445	5.038	207.514	112.452	29.4988	278.229	443.221	471.596	427.495	116.639	399.702	279.514	171.577	620.663	20.629	211.675	19.580	126.327	194.673	197.699	205.975	199.009	8192	-8191	8192	8192	254	
77104.961	1	1	0	0	240.131	221.053	215.177	3.26989	194.732	91.857	37.1436	288.567	466.928	489.202	453.639	129.534	406.462	282.264	176.861	650.457	24.837	207.947	20.570	115.852	202.643	195.157	224.051	197.068	8192	-8191	8192	8192	254	
77105.031	1	1	0	0	239.051	231.091	218.79	14.3286	189.305	92.9707	31.6536	286.948	462.298	494.163	460.173	143.726	417.846	284.635	200.505	638.514	22.491	207.195	21.995	327.241	193.831	199.994	190.180	195.350	8192	-8191	8192	8192	254	
77105.078	1	1	0	0	218.853	248.406	209.658	8.53853	182.743	109.85	19.0492	265.999	483.409	517.659	472.889	159.231	428.957	313.76	201.096	661.606	22.987	207.825	22.945	333.297	199.326	197.944	202.209	197.656	8192	-8191	8192	8192	254	
77105.125	1	1	0	0	230.14	210.99	201.622	3.43354	194.134	104.381	26.6718	313.201	494.587	534.918	501.769	201.327	487.226	374.043	283.365	750.111	27.721	211.899	19.570	102.593	195.091	198.874	223.910	198.682	8192	-8191	8192	8192	254	
77105.172	1	1	0	0	232.936	241.026	214.818	20.95	198.187	85.1407	28.3655	281.23	588.615	617.788	573.514	284.567	550.077	433.038	326.091	776.312	20.536	207.238	17.161	27.202	195.407	203.402	213.067	197.803	8192	-8191	8192	8192	254	
77105.219	1	1	0	0	216.781	237.735	200.46	6.66212	194.814	105.59	39.0971	252.982	612.913	649.077	584.601	285.082	568.356	445.962	348.899	777.019	22.215	211.142	15.344	341.372	195.486	193.846	205.819	197.539	8192	-8191	8192	8192	254	
77105.266	1	1	0	0	219.949	235.131	192.602	9.39854	168.616	113.084	31.1184	305.266	629.909	679.269	595.63	288.538	557.596	444.115	350.986	813.529	18.877	212.570	18.078	288.757	197.268	194.157	203.889	197.614	8192	-8191	8192	8192	254	
77105.320	1	1	0	0	197.863	236.836	185.839	8.96458	191.501	109.739	26.9356	287.139	628.644	677.851	624.577	317.192	584.851	473.322	361.558	834.245	24.039	213.515	18.221	85.348	193.413	203.469	196.435	199.003	8192	-8191	8192	8192	254	
77105.367	1	1	0	0	239.982	233.318	192.572	8.53172	113.307	33.2046	3.6973	19.2079	666.769	663.933	597.788	273.587	384.678	245.442	173.668	195.798	16.694	212.080	21.388	110.746	206.583	198.979	255.432	201.244	8192	-8191	8192	8192	254	
77105.414	1	1	0	0	3.14702	4.66273	5.93501	5.35928	5.85821	6.77083	4.60887	7.07641	159.101	161.077	150.37	142.332	155.923	162.942	167.284	180.154	42.579	101.905	25.781	229.083	24.390	206.811	6.649	327.519	8192	-8191	8192	8192	254	
77105.461	1	1	0	0	11.8681	7.3991	17.1212	21.1857	38.2948	91.5176	74.3974	63.426	253.014	513.899	1934.96	3166.19	8246.97	12446	8301.49	10557.8	312.241	181.349	82.130	156.787	110.701	235.958	278.402	39.801	8192	-8191	8192	8192	254	
77105.531	1	1	0	0	113.189	149.141	38.3474	96.4182	69.6247	65.8616	146.655	98.8133	13991.4	15158.6	12153.6	10684.4	10645.5	10832.9	10734	10021.8	141.261	197.895	311.048	158.952	35.431	93.091	60.884	38.394	8192	-8191	8192	8192	254	
77105.578	1	1	0	0	43.4793	111.968	42.5071	11.7213	11.956	24.029	12.5861	4.90635	9286.16	6537.07	2122.23	726.904	734.938	754.938	781.317	814.591	245.734	273.981	274.189	192.308	240.600	31.808	20.183	85.475	8192	-8191	8192	8192	254	
77105.633	1	1	0	0	15.5274	15.4821	28.7866	4.43217	13.8523	12.1288	12.6623	32.9459	847.644	856.029	823.37	804.543	796.755	829.808	792.572	821.207	215.590	82.125	70.614	131.250	80.882	50.420	327.585	33.491	8192	-8191	8192	8192	254	
77105.680	1	1	0	0	17.9724	20.5279	27.8157	16.243	27.942	7.24046	22.574	15.3805	810.332	833.144	830.399	845.255	827.207	825.337	838.24	834.226	315.749	127.259	37.391	271.784	279.285	221.143	300.110	156.781	8192	-8191	8192	8192	254	
77105.680	1	1	0	0	8.16965	9.48065	9.13757	35.4849	7.10174	33.0593	19.6534	24.4271	843.428	837.24	854.524	861.26	884.192	931.606	919.13	963.649	164.960	15.197	322.978	338.654	232.821	227.941	180.067	287.897	8192	-8191	8192	8192	254	
77105.727	1	1	0	0	6.39969	20.542	19.955	32.8495	32.8336	82.1451	4.66563	75.9138	966.038	999.053	992.812	927.279	931.736	1631.79	4343.23	4940.79	338.952	213.010	98.563	13.121	189.797	152.317	223.795	294.763	8192	-8191	8192	8192	254	
77105.773	1	1	0	0	45.6927	27.0425	64.5089	27.7827	14.9893	6.40259	20.3085	14.2861	5064.82	4312.69	3158.92	2136.99	1233.72	673.62	460.697	359.601	352.422	218.738	280.532	8.672	48.705	278.987	31.910	348.050	8192	-8191	8192	8192	254	
77105.820	1	1	0	0	4.58572	9.42302	5.48566	8.55524	12.79	1.53633	6.01085	6.74113	303.529	256.673	216.75	200.933	190.846	188.322	192.394	185.399	177.562	6.768	146.020	309.557	137.762	111.069	56.501	50.228	8192	-8191	8192	8192	254	
77105.891	1	1	0	0	5.65334	7.21514	11.3842	7.42495	10.0252	8.59758	4.41843	7.85791	180.264	178.505	176.904	168.332	175.341	171.014	162.029	161.99	319.546	188.928	238.361	37.996	231.182	339.750	145.803	279.511	8192	-8191	8192	8192	254	
77105.938	1	1	0	0	8.16151	4.87247	11.1162	5.66243	4.52453	1.7147	2.63114	2.94779	160.721	158.909	154.788	158.572	154.601	151.995	149.351	148.995	285.074	277.263	268.802	273.051	258.117	140.262	288.028	14.107	8192	-8191	8192	8192	254	
77105.992	1	1	0	0	4.03073	11.62	8.02532	12.1107	6.53331	4.50569	4.09764	4.48041	139.034	145.212	139.149	132.981	146.159	142.707	139.385	142.433	9.308	9.182	252.427	138.231	43.755	171.066	282.074	57.408	8192	-8191	8192	8192	254	
77106.039	1	1	0	0	5.92521	12.5579	6.57609	1.66264	13.3137	6.966	15.1067	73.9017	145.264	146.279	152.947	168.106	228.966	320.394	345.865	483.731	41.239	82.669	1.996	157.051	192.795	213.218	241.211	210.344	8192	-8191	8192	8192	254	
77106.086	1	1	0	0	56.2417	64.8552	52.9536	19.3797	44.4858	32.2839	13.9368	80.0218	439.688	436.447	428.019	347	413.322	375.341	348.082	476.514	22.876	209.815	28.329	34.180	198.692	211.777	233.897	196.609	8192	-8191	8192	8192	254	
77106.133	1	1	0	0	73.0594	70.9644	66.3923	6.24288	55.8326	15.8924	6.75673	82.2261	416.596	432.163	414.947	329.548	406.341	357.375	337.923	475.37	27.134	215.563	16.169	184.875	193.783	188.677	192.964	199.019	8192	-8191	8192	8192	254	
77106.203	1	1	0	0	51.8712	54.6544	64.9398	4.9782	67.5524	34.1948	15.5243	107.235	405.981	425.091	403.457	306.399	400.159	356.731	316.861	453.043	27.371	221.636	23.672	218.165	201.004	202.723	221.936	191.919	8192	-8191	8192	8192	254	
77106.250	1	1	0	0	60.9464	69.9593	59.3924	11.9536	56.667	33.4525	9.33895	86.189	392.62	385.005	372.308	278.798	356.986	324.466	282.649	413.827	32.454	216.072	24.957	24.115	187.040	206.133	223.628	214.002	8192	-8191	8192	8192	254	
77106.305	1	1	0	0	81.7497	57.6764	61.5541	4.67949	62.6457	39.8467	18.3608	95.8789	363.476	354.125	340.072	235.966	327.139	274.543	231.889	372.899	18.167	228.688	30.281	174.666	197.291	206.913	216.317	194.732	8192	-8191	8192	8192	254	
77106.352	1	1	0	0	83.8936	77.1957	61.1665	5.37317	61.0765	43.5597	13.3589	82.7174	303.668	310.135	299.312	190.034	269.471	226.183	191.139	326.923	17.476	221.080	28.934	262.782	208.079	193.273	121.051	201.569	8192	-8191	8192	8192	254	
77106.398	1	1	0	0	59.1917	71.4766	61.2521	7.86258	58.1106	26.0274	3.14997	88.5441	266.505	283.212	259.264	160.178	239.663	197.601	168.856	303.481	26.833	213.747	23.715	30.110	208.387	213.128	250.178	200.667	8192	-8191	8192	8192	254	
77106.445	1	1	0	0	73.9979	69.8756	71.0254	6.42913	53.2007	21.5667	10.5807	92.1218	233.649	245.087	218.591	128.288	200.938	161.678	138.221	274.13	33.637	215.790	22.825	290.837	198.631	204.678	232.914	198.319	8192	-8191	8192	8192	254	
77106.445	1	1	0	0	67.766	70.1942	57.7359	4.83614	55.2802	27.5709	4.86142	79.8473	209.779	205.904	191.74	110.087	187.37	152.928	117.101	247.928	21.679	202.322	19.367	317.148	202.304	205.594	171.795	195.354	8192	-8191	8192	8192	254	
77106.492	1	1	0	0	57.9899	53.9754	63.1166	5.52305	56.7917	25.396	10.4151	72.5698	190.697	203.832	193	105.779	188.322	153.587	122.163	255.635	30.458	214.557	24.151	160.104	211.892	207.197	205.192	203.912	8192	-8191	8192	8192	254	
77106.539	1	1	0	0	65.5829	71.5911	62.2418	1.73789	45.2315	20.2713	11.2719	91.0906	207.072	205.591	199.894	108.149	181.159	152.115	124.808	254.957	28.045	214.746	27.200	128.824	194.261	223.422	216.665	199.781	8192	-8191	8192	8192	254	
77106.594	1	1	0	0	55.9685	66.9976	49.8342	4.83843	56.5744	26.3074	3.95185	85.7368	194.918	207	195.005	112.202	186.697	148.139	118.966	260.365	34.276	219.730	31.711	280.884	200.206	200.138	174.969	202.325	8192	-8191	8192	8192	254	
77106.664	1	1	0	0	70.1794	64.7439	66.6665	5.83363	65.5112	36.3683	8.62199	89.7601	201.644	211.168	195.418	107.514	183.332	152.75	122.409	249.832	21.840	219.631	26.136	195.093	200.835	185.404	218.567	199.841	8192	-8191	8192	8192	254	
77106.711	1	1	0	0	63.0479	53.7092	57.7107	9.91158	57.3875	26.6845	10.3396	73.9137	190.457	200.861	198.611	103.644	180.399	144.111	110.615	238.995	24.540	212.059	15.169	350.111	204.680	206.359	185.072	203.464	8192	-8191	8192	8192	254	
77106.758	1	1	0	0	66.8066	42.8317	46.4632	11.0507	50.3356	28.9438	6.9705	81.5349	188.399	184.62	185.514	101.793	184.745	160.861	123.995	252.101	37.437	220.222	25.925	135.704	191.761	212.057	185.314	197.251	8192	-8191	8192	8192	254	
77106.805	1	1	0	0	58.0915	54.7836	47.5047	7.46887	60.5184	28.2884	9.77965	88.5598	195.284	207.591	189.024	108.644	189.841	148.394	124.471	262.438	15.610	216.157	34.299	168.171	206.036	211.264	211.043	202.266	8192	-8191	8192	8192	254	
77106.852	1	1	0	0	60.8274	54.3395	60.569	4.37484	57.6785	23.7501	4.20907	75.4003	196.947	202.163	198.053	108.005	194.889	148.909	136.639	262.928	27.169	210.463	25.429	83.907	198.374	221.758	2.624	197.737	8192	-8191	8192	8192	254	
77106.898	1	1	0	0	54.3197	57.5188	68.853	1.14763	54.1581	28.9451	5.24925	80.7305	201.562	213.433	201.62	117.207	185.423	158.702	129.736	260.457	22.852	210.114	24.383	10.018	208.729	212.765	243.538	201.756	8192	-8191	8192	8192	254	
77106.945	1	1	0	0	69.6135	54.0147	63.012	9.45453	54.2197	25.2159	11.4097	71.6987	206.024	213.255	209.019	115.567	188.856	154.827	129.721	256.721	28.656	209.588	12.349	7.385	207.948	180.504	223.550	195.092	8192	-8191	8192	8192	254	
77107.000	1	1	0	0	56.6115	74.341	55.4185	13.4104	48.355	16.2852	8.92524	98.2521	203.038	211.625	199.231	113.923	186.346	160.755	130.885	264.543	28.144	218.348	26.260	242.089	209.137	228.750	225.948	199.389	8192	-8191	8192	8192	254	
77107.070	1	1	0	0	67.9072	69.9549	45.3487	5.70961	50.6992	28.0022	12.6005	70.0871	206.082	214.577	187.13	109.144	191.346	158.981	126.596	245.591	26.035	220.799	21.354	53.433	207.483	195.853	201.828	201.272	8192	-8191	8192	8192	254	
77107.117	1	1	0	0	49.0812	63.2877	48.9241	5.51401	45.4168	30.4204	15.3747	77.5632	198.173	205.394	203.74	115.274	179.952	153.303	127.202	249.62	31.819	218.006	23.086	258.568	203.016	198.545	183.378	201.409	8192	-8191	8192	8192	254	
77107.164	1	1	0	0	53.5175	58.3157	55.4578	3.98536	49.8638	43.5302	7.43537	69.8056	200.25	207.365	185.981	109.255	186.365	157.495	131.909	247.615	29.559	231.242	30.850	28.832	201.189	193.924	198.920	198.100	8192	-8191	8192	8192	254	
77107.211	1	1	0	0	55.8308	53.7492	62.3401	4.36403	63.4414	31.4961	10.8523	59.6389	204.875	204.144	195.37	110.524	183.87	154.673	123.668	251.433	25.572	206.030	23.597	120.610	201.891	199.200	238.905	202.207	8192	-8191	8192	8192	254	
77107.211	1	1	0	0	49.1614	51.1542	54.095	9.04083	42.2273	25.979	6.61275	90.09	187.875	204.562	197.111	112.817	180.784	150.659	121.529	254.293	19.993	222.804	41.068	357.435	215.009	204.042	276.319	197.243	8192	-8191	8192	8192	254	
77107.258	1	1	0	0	60.3988	55.9267	54.2528	4.31241	46.39	19.0636	8.61483	93.0885	190.019	203.476	187.192	108.12	181.279	148.966	119.635	258.207	19.909	220.629	33.329	72.273	207.428	205.899	219.093	202.788	8192	-8191	8192	8192	254	
77107.336	1	1	0	0	47.8357	57.2322	56.204	6.54314	45.4577	27.6139	11.1399	83.2234	187.38	195.495	192.096	104.298	186.279	158.188	125.264	254.966	36.196	227.124	26.791	49.507	203.432	201.143	175.156	201.776	8192	-8191	8192	8192	254	
77107.383	1	1	0	0	59.5182	65.069	55.1494	2.19296	41.1354	34.1301	14.3415	76.0082	194.25	204.351	185.957	106.255	179.668	151.327	112.365	234.875	29.578	214.313	31.173	193.759	209.165	192.751	278.441	203.779	8192	-8191	8192	8192	254	
77107.430	1	1	0	0	55.6425	53.2189	49.0182	5.8143	56.8797	29.2724	10.0142	80.0639	182.913	201.433	190.514	101.053	176.587	151.067	122.356	240.466	44.072	221.427	35.105	306.536	208.183	196.276	181.437	201.236	8192	-8191	8192	8192	254	
77107.477	1	1	0	0	59.0698	68.9796	53.7103	4.68753	51.2546	33.0968	5.64985	84.9196	186.894	197.356	194.317	100.168	182.649	145.447	112.577	246.438	28.429	217.213	25.275	156.420	207.446	203.832	199.268	202.260	8192	-8191	8192	8192	254	
77107.523	1	1	0	0	56.4458	47.4251	52.7931	6.31419	56.7311	26.4896	7.50633	85.5441	187.062	195.567	183.423	111.885	179.034	146.423	120.957	247.913	25.025	218.384	31.830	30.813	212.174	195.400	166.050	205.097	8192	-8191	8192	8192	254	
77107.570	1	1	0	0	52.9839	60.0805	51.419	4.89335	52.8284	32.096	4.76488	85.0259	193.861	202.755	192.356	112.567	183.548	150.428	120.303	264.889	24.024	219.888	17.957	282.526	213.015	211.488	186.221	201.263	8192	-8191	8192	8192	254	
77107.625	1	1	0	0	61.4846	53.1123	57.4478	4.41251	50.3232	29.6731	16.7152	85.1834	189.207	207.981	193.274	110.683	185.072	147.202	118.639	246.553	28.799	219.625	30.780	249.087	205.860	202.748	207.023	199.685	8192	-8191	8192	8192	254	
77107.672	1	1	0	0	54.4533	52.8279	55.1152	5.12369	48.7351	21.1621	7.98561	83.5501	191.909	200.106	190.668	112.317	173.562	148.409	120.538	253.082	31.607	219.886	33.743	18.540	208.499	204.544	180.935	209.191	8192	-8191	8192	8192	254	
77107.719	1	1	0	0	60.9406	55.1925	55.4473	10.1081	55.2867	27.2866	6.19317	88.8848	189.851	192.702	187.202	106.048	178.312	142.885	104.716	254.351	36.288	227.129	30.290	163.474	212.812	215.645	201.351	203.936	8192	-8191	8192	8192	254	
77107.766	1	1	0	0	53.6734	64.1072	54.5045	4.51607	49.6818	25.9613	8.98969	87.3352	182.207	196.067	187.428	100.938	176.904	136.322	116.173	241.731	19.543	203.527	30.633	297.255	201.277	221.186	159.461	196.935	8192	-8191	8192	8192	254	
77107.836	1	1	0	0	53.8427	60.7844	59.0898	1.87304	46.8875	28.1444	7.16385	90.5711	185.418	178.529	173.591	95.101	165.971	130.827	103.12	228.548	25.149	212.133	29.809	250.451	204.579	198.588	203.995	204.668	8192	-8191	8192	8192	254	
77107.883	1	1	0	0	52.8015	50.9257	52.8213	1.50513	57.088	35.1483	9.1251	80.2528	168.76	167.567	157.144	73.4279	142.548	115.822	80.7356	201.678	39.013	223.713	27.721	96.041	194.539	223.661	226.604	187.463	8192	-8191	8192	8192	254	
77107.930	1	1	0	0	59.6502	57.5937	48.404	5.76356	58.0141	20.156	14.5562	78.2035	152.255	159.106	140.433	58.3654	131.298	95.7692	69.4904	192.793	24.678	219.612	33.911	160.626	206.742	232.083	174.772	205.032	8192	-8191	8192	8192	254	
77107.984	1	1	0	0	58.3407	65.4112	63.4813	3.58233	53.4846	27.4489	7.19688	75.9789	141.245	141.538	134.029	51.7548	124.899	94.5192	64.8125	188.212	23.664	212.375	15.797	36.224	207.316	205.259	209.449	203.810	8192	-8191	8192	8192	254	
77107.984	1	1	0	0	62.0764	53.7199	59.9392	2.24379	49.3582	25.3061	12.579	80.4084	132.76	146.385	135.731	46.5962	120.745	92.7981	69.9567	195.452	32.910	220.268	29.870	92.970	203.375	192.200	196.982	201.521	8192	-8191	8192	8192	254	
77108.031	1	1	0	0	60.6684	53.643	49.7483	3.1718	48.5781	22.9815	11.4446	70.6847	135.875	139.37	133.048	44.7837	119.394	86.3846	59.6635	186.769	28.702	220.075	22.439	261.701	203.054	193.953	197.979	197.046	8192	-8191	8192	8192	254	
77108.078	1	1	7	0	62.5331	54.028	63.5998	1.23666	45.3716	26.9086	9.75117	85.0788	137.74	129.582	130.938	44.3317	117.928	95.4712	62.8462	186.216	28.347	211.769	29.728	327.098	200.243	216.235	208.091	204.620	8192	-8191	8192	8192	254	
77108.125	1	1	0	0	59.3708	58.3217	58.385	4.15307	45.1744	25.3087	0.848206	79.1841	133.913	145.788	128.63	45.4423	121.587	91.4808	65.5577	197.798	20.577	215.297	21.492	269.601	197.779	187.596	66.464	202.287	8192	-8191	8192	8192	254	
77108.195	1	1	0	0	55.0714	51.4032	47.0194	6.41379	59.2804	25.5286	15.2011	75.5071	147.014	162.635	143.091	71.3654	144.639	120.231	100.615	231.755	29.783	206.950	23.726	303.333	197.542	220.429	204.254	203.823	8192	-8191	8192	8192	254	
77108.242	1	1	0	0	55.9216	63.8093	45.3591	3.07632	45.1271	24.4819	14.2615	69.7239	169.135	175.255	162.399	87.0288	155.019	131.524	101.087	220.726	35.108	213.727	10.585	15.004	196.945	206.302	196.975	206.061	8192	-8191	8192	8192	254	
77108.297	1	1	0	0	61.66	53.1837	51.5714	7.53524	50.5198	26.9512	11.8439	78.7762	170.317	171.966	160.726	81.3942	157.62	119.139	93.9471	225.76	26.013	208.121	27.158	155.871	206.399	194.242	177.402	196.099	8192	-8191	8192	8192	254	
77108.344	1	1	0	0	55.2599	54.3825	63.7705	6.82538	53.2134	24.6804	8.49699	80.2444	166.514	179.466	161.962	76.3173	149.048	126.702	85.0817	215.029	25.418	216.148	20.307	249.805	202.106	216.752	150.959	200.801	8192	-8191	8192	8192	254	
77108.391	1	1	0	0	50.8952	63.5482	53.8877	6.56392	56.8631	23.8994	3.48768	91.7241	157.769	165.659	155.654	70.6106	146.476	103.543	77.6538	207.394	29.618	208.245	21.054	348.127	198.833	190.735	221.934	205.267	8192	-8191	8192	8192	254	
77108.438	1	1	0	0	49.7687	59.4481	48.5135	6.60115	51.3995	30.3634	8.09746	78.5998	144.361	155.019	136.688	65.5192	131.341	101.63	67.0433	192.798	23.946	216.291	29.405	229.490	201.191	201.054	195.758	201.780	8192	-8191	8192	8192	254	
77108.508	1	1	0	0	58.7059	54.5161	59.4445	6.52298	46.8558	24.5527	8.49823	81.2376	131.851	145.635	141.01	50.5096	126.13	87.2933	63.4327	190.88	29.625	209.511	26.842	36.423	200.240	213.336	195.048	195.573	8192	-8191	8192	8192	254	
77108.555	1	1	0	0	60.3714	55.8797	58.3203	6.59731	49.6448	28.3242	9.65648	88.6876	134.784	140.875	139.082	46.5913	122.856	95.8365	58.7692	185.837	26.270	211.560	28.724	7.066	211.375	208.355	258.446	202.967	8192	-8191	8192	8192	254	
77108.602	1	1	0	0	59.4489	68.0683	58.5448	7.64263	54.1595	27.5175	11.1779	76.8858	135.702	144.221	130.014	53.8654	123.394	90.3462	70.351	186.091	32.826	223.368	26.581	178.021	201.356	199.501	217.194	208.001	8192	-8191	8192	8192	254	
77108.656	1	1	0	0	59.8178	51.1727	57.598	5.72011	62.4618	22.9365	10.1012	78.7783	137.596	146.88	129.904	46.6202	127.466	95.7067	66.0144	194.087	27.316	222.942	37.847	124.485	197.376	195.263	195.831	203.517	8192	-8191	8192	8192	254	
77108.703	1	1	0	0	64.8955	58.5585	38.3952	4.17719	51.802	29.2342	4.41747	83.4234	139.442	140.745	135.125	49.1442	129.572	92.7115	58.9615	194.942	30.094	209.640	27.574	262.257	207.140	203.188	216.924	200.396	8192	-8191	8192	8192	254	
77108.750	1	1	0	0	63.969	58.8843	63.7287	6.32568	43.864	27.0341	5.33164	93.1008	138.49	139.74	138.827	49.9279	131.168	95.2404	67.899	203.745	24.105	217.790	24.145	313.616	199.519	213.643	197.286	201.534	8192	-8191	8192	8192	254	
77108.750	1	1	0	0	71.0055	54.4655	57.1893	0.996037	55.1477	25.7811	13.2521	87.5572	144.159	136.673	132.913	51.8221	129.957	88.0913	65.7163	197.332	28.057	213.257	23.761	15.665	194.113	204.128	231.273	200.205	8192	-8191	8192	8192	254	
77108.797	1	1	0	0	64.5135	61.1293	52.5399	2.95839	54.9726	18.0811	9.45961	79.8997	140.567	141.433	136.5	49.1875	126.986	93.024	72.3029	195.317	25.803	215.060	38.659	274.194	199.032	218.087	244.763	192.556	8192	-8191	8192	8192	254	
77108.867	1	1	0	0	53	66.7706	49.8683	3.54078	59.9509	27.0205	13.0058	80.8162	140.611	145.731	131.298	53.3846	121.115	99.4375	69.2452	191.5	28.328	220.045	28.442	171.048	205.494	197.186	192.206	196.247	8192	-8191	8192	8192	254	
77108.914	1	1	0	0	59.1938	58.1783	53.5346	2.87952	48.0475	31.8168	14.5596	83.6558	138.327	142.779	142.192	48.8702	131.49	98.0913	68.3269	189.808	30.246	214.412	23.436	124.239	201.603	201.793	231.284	200.009	8192	-8191	8192	8192	254	
77108.969	1	1	0	0	55.5473	60.883	47.7755	4.36214	53.0031	28.7928	12.7457	95.9864	138.308	143.308	133.202	51.4375	128.971	95.7115	66.2692	214.163	30.481	212.176	25.505	217.521	197.921	212.064	226.949	207.633	8192	-8191	8192	8192	254	
77109.016	1	1	0	0	60.9933	53.4971	55.465	2.37629	32.9866	34.8105	14.4586	94.0661	134.168	145.88	134.351	48.5144	128.24	98.9904	63.6731	213.962	23.069	218.399	19.224	91.979	200.225	193.761	184.830	202.795	8192	-8191	8192	8192	254	
77109.062	1	1	0	0	68.5638	47.5011	55.6164	1.83472	56.8879	32.7875	11.9347	95.3555	137.24	143.024	137.524	54.9904	135.053	97.3606	61.8317	223.452	22.927	212.623	25.658	249.936	198.477	201.831	227.960	194.659	8192	-8191	8192	8192	254	
77109.109	1	1	0	0	69.5764	51.9852	55.8389	1.97405	50.9735	25.5827	0.165108	88.7464	143.428	139.62	132.865	50.1731	124.875	95.7356	65.9519	194.683	27.534	214.353	31.811	227.936	204.194	206.317	205.183	200.843	8192	-8191	8192	8192	254	
77109.156	1	1	0	0	54.6849	67.6769	54.663	7.41877	44.778	28.9499	1.08724	90.8121	139.312	145.428	130.067	50.0529	131.341	95.2212	65.524	196.13	20.072	226.453	27.780	36.409	200.338	206.959	211.924	200.168	8192	-8191	8192	8192	254	
77109.203	1	1	0	0	66.5075	57.3794	49.9508	4.14092	47.7849	24.4036	9.3248	82.4216	142.986	148.49	136.865	50.7115	125.712	96.5481	71.2452	196.51	32.503	212.767	20.809	155.050	202.543	199.023	200.778	196.079	8192	-8191	8192	8192	254	
77109.258	1	1	0	0	62.4655	49.5173	52.3262	7.24622	54.8971	13.152	6.56566	83.7921	137.548	148.409	129.534	56.4135	129.942	92.4808	71.8654	202.115	24.619	219.049	32.299	229.630	202.118	210.539	240.431	197.518	8192	-8191	8192	8192	254	
77109.305	1	1	0	0	57.974	59.2772	50.2824	4.90518	43.114	29.8331	15.119	80.3814	141.976	144.534	133.548	50.4712	122.298	97.5721	66.8798	189.678	29.037	222.333	24.594	190.245	204.307	204.898	234.993	202.570	8192	-8191	8192	8192	254	
77109.375	1	1	0	0	60.2743	51.7512	50.6994	2.30353	54.4821	29.3001	7.19286	93.7855	141.793	146.649	133.562	48.5481	123.611	91.4904	66.7212	207.058	31.204	205.563	25.526	239.408	197.193	198.960	174.864	203.321	8192	-8191	8192	8192	254	
77109.422	1	1	0	0	63.38	64.4344	44.7727	3.95249	49.8639	25.1792	11.4123	73.6153	133.75	150.784	128.846	54.3221	128.856	95.3221	67.5192	195.856	28.094	213.461	26.665	98.014	196.491	198.459	184.589	207.461	8192	-8191	8192	8192	254	
77109.469	1	1	0	0	53.4267	56.6108	48.5801	5.66736	49.8455	23.7132	12.9419	81.6851	138.101	150.135	137.688	52.9663	118.986	92.274	72.0529	193.024	28.347	210.171	21.614	81.966	209.329	226.184	191.946	196.397	8192	-8191	8192	8192	254	
77109.516	1	1	0	0	58.1063	54.6618	49.4425	0.65574	50.4952	29.1804	4.77098	75.1269	141.519	145.24	133.87	48.8269	122.37	95.0769	68.2644	192.072	22.406	216.773	34.702	84.170	196.252	208.744	221.779	201.084	8192	-8191	8192	8192	254	
77109.516	1	1	0	0	62.2763	62.2594	57.9376	5.50746	51.9171	27.7069	11.4274	91.425	137.058	147.332	129.404	49.2212	125.428	91.2404	64.3606	200.63	27.472	220.568	31.953	128.423	206.627	209.787	250.127	197.395	8192	-8191	8192	8192	254	
77109.562	1	1	0	0	50.5727	60.6094	54.214	2.46808	50.8307	34.8784	6.5623	86.9702	130.625	148.784	132.062	55.9663	125.918	94.3606	68.0529	194.99	27.373	211.189	28.773	349.115	210.545	200.668	209.314	208.441	8192	-8191	8192	8192	254	
77109.617	1	1	0	0	64.7922	55.201	65.289	3.02594	55.4586	26.0051	9.33342	71.9507	144.005	138.683	133.692	47.2788	119.817	92.399	62.4663	194.341	30.665	220.757	17.644	95.085	205.746	212.712	230.587	204.394	8192	-8191	8192	8192	254	
77109.664	1	1	0	0	57.9123	64.7169	63.2125	4.79553	55.5102	16.8484	6.93861	85.6048	140.188	147.846	133.24	55.9327	128.13	91.2885	67.6827	189.163	21.915	219.108	27.502	95.722	198.335	211.288	191.570	204.314	8192	-8191	8192	8192	254	
77109.734	1	1	0	0	54.8457	53.5719	48.4972	4.99845	49.9751	24.8675	11.8174	79.767	144.505	149.889	130.981	51.3606	130.202	89.4231	64.0865	192.788	34.707	218.826	21.419	3.779	194.578	215.136	176.911	200.656	8192	-8191	8192	8192	254	
77109.781	1	1	0	0	53.4929	56.2949	64.0056	7.44113	58.8208	28.6944	3.25608	74.4483	133.154	147.668	132.933	51.6154	131.601	89.7596	63.3654	186.856	27.047	218.684	21.551	309.930	196.815	205.108	164.574	201.186	8192	-8191	8192	8192	254	
77109.828	1	1	0	0	56.4888	56.6228	50.6379	3.98503	49.5539	22.8776	12.6482	81.0289	139.024	143.971	133.38	55.3365	121.683	91.5865	65.476	190.601	33.717	221.727	20.082	125.949	188.871	199.486	178.675	205.337	8192	-8191	8192	8192	254	
77109.875	1	1	0	0	56.0299	61.8186	57.9812	6.17965	58.5905	26.4739	8.01687	86.9015	136.534	152.635	137.255	44.9231	128.149	94.4904	68.5	200.173	35.023	217.830	26.768	244.083	195.281	202.260	199.066	197.803	8192	-8191	8192	8192	254	
77109.922	1	1	0	0	57.4101	52.3679	57.0102	5.98833	55.9003	24.1264	12.8605	74.327	137.659	141.495	134.812	52.9423	129.923	86.774	63.2788	186.399	27.169	211.448	25.091	359.153	208.631	207.719	225.968	202.394	8192	-8191	8192	8192	254	
77109.977	1	1	0	0	64.0427	59.6657	51.0677	3.96461	48.4632	23.5553	11.7896	72.2507	145.101	137.63	130.312	51.2933	119.688	92.6827	68.4135	185.067	26.217	212.524	26.097	298.239	201.399	195.674	212.209	205.870	8192	-8191	8192	8192	254	
77110.023	1	1	0	0	50.0702	55.9403	55.7601	3.64031	50.2673	27.114	8.52452	96.2864	135.865	142.952	139.779	49.2644	125.625	93.4423	66.0481	202.971	30.159	215.031	24.188	16.491	192.331	212.230	217.435	201.569	8192	-8191	8192	8192	254	
77110.070	1	1	0	0	64.2572	63.3997	51.3571	0.134438	55.6522	18.6806	11.0808	80.3417	133.053	145.159	128.668	46.6442	124.404	90.9471	63.0721	199.197	30.421	224.295	15.781	81.237	200.293	223.394	219.955	198.179	8192	-8191	8192	8192	254	
77110.141	1	1	0	0	59.479	68.9914	58.307	6.79825	49.108	29.0548	5.03749	83.7178	134.827	147.788	135.899	49.8558	131.409	89.4856	63.8798	192.12	24.619	211.768	14.471	320.277	203.608	208.626	169.472	199.335	8192	-8191	8192	8192	254	
77110.188	1	1	0	0	63.0191	55.0049	54.8541	3.00231	56.8918	32.1339	11.2567	95.3183	135.514	141.303	134.606	49.2452	126.769	91.351	63.3798	195.144	26.047	209.724	19.743	303.571	209.188	210.014	174.393	199.462	8192	-8191	8192	8192	254	
77110.234	1	1	0	0	58.0273	59.3721	58.4036	5.73244	46.8042	21.947	11.6448	84.2239	139.327	135.029	131.644	51.8029	116.562	92.2019	62.8317	203.293	28.821	223.778	24.038	358.177	199.771	212.373	211.247	198.728	8192	-8191	8192	8192	254	
77110.281	1	1	0	0	63.4937	57.7501	67.1981	3.03057	60.684	30.9693	4.25654	81.6988	139.24	144.332	133.702	51.9327	130.548	92.101	60.4423	190.966	32.638	217.286	21.387	286.808	204.709	208.328	208.693	202.341	8192	-8191	8192	8192	254	
77110.281	1	1	0	0	53.579	60.0154	66.5258	7.06641	52.9986	20.4587	7.95108	85.3245	132.365	148.13	131.697	49.8606	127.139	93.0913	62.7837	193.351	26.633	214.037	20.978	160.258	204.926	206.570	176.545	206.017	8192	-8191	8192	8192	254	
77110.336	1	1	0	0	62.6479	56.4014	49.2217	7.47046	53.1982	28.9882	9.27799	102.729	141.572	139.413	132.269	51.851	123.12	94.6779	61.5337	202.24	26.601	212.520	28.433	275.505	215.751	192.176	171.595	210.528	8192	-8191	8192	8192	254	
77110.406	1	1	0	0	54.2903	55.7279	62.7383	4.88865	52.1935	21.8231	9.05359	95.8263	138.293	134.928	136.125	50.8317	118.601	90.2596	66.5337	195.76	25.518	215.181	25.476	254.362	194.701	201.827	193.416	198.911	8192	-8191	8192	8192	254	
77110.453	1	1	0	0	49.4525	60.7512	58.5248	1.02743	48.1625	26.4255	4.95368	79.5284	131.418	145.048	135.909	50.476	122.683	94.9135	66.1058	196.327	38.729	222.482	23.677	176.382	198.395	211.123	174.252	209.002	8192	-8191	8192	8192	254	
77110.500	1	1	0	0	64.5474	55.8067	56.632	3.35997	59.3868	26.4203	6.7478	85.3417	132.462	145.37	133.558	47.0048	129.668	84.0288	69.5096	185.938	26.237	211.836	24.228	303.743	207.278	200.078	207.706	203.426	8192	-8191	8192	8192	254	
77110.547	1	1	0	0	55.5554	68.3169	52.0135	5.34639	53.9139	28.0756	9.59889	81.6088	128.308	146.654	130.168	52.25	128.438	88.3798	61.3269	201.745	30.452	215.524	22.370	85.958	203.887	195.324	225.497	199.856	8192	-8191	8192	8192	254	
77110.594	1	1	0	0	68.073	60.6819	57.3044	4.62951	48.3334	34.1751	8.60642	81.301	139.538	149	129.721	50.8173	122.654	93.4712	68.4279	196.803	30.366	212.447	26.045	251.078	200.352	204.058	227.134	198.248	8192	-8191	8192	8192	254	
77110.648	1	1	0	0	59.8242	67.0562	55.9763	3.99933	52.1793	25.308	12.1289	81.6159	135.385	148.293	136.471	55.0769	124.466	92.3413	65.5721	197.413	19.744	214.186	22.475	299.701	197.277	202.134	186.233	207.322	8192	-8191	8192	8192	254	
77110.695	1	1	0	0	56.9006	60.4347	44.379	1.48578	43.7706	26.1479	8.30427	78.9248	129.111	145.909	136.5	53.2548	126.938	96.6154	64.0673	190.76	20.436	216.525	30.357	278.587	201.099	206.579	240.079	199.827	8192	-8191	8192	8192	254	
77110.742	1	1	0	0	75.5549	61.2499	62.2297	6.01778	47.8655	27.8381	6.76235	88.8321	140.99	142.702	136.659	52.5385	116.721	94.6442	64.5721	186.096	31.099	213.253	17.265	342.442	204.203	202.217	213.168	210.487	8192	-8191	8192	8192	254	
77110.812	1	1	0	0	59.9996	54.8601	55.9556	8.72898	52.9659	27.6114	13.0393	86.007	134.135	151.899	130.798	53.0577	124.99	93.0913	61.9567	191.101	22.557	218.015	24.156	276.788	192.540	206.790	201.043	200.163	8192	-8191	8192	8192	254	
77110.859	1	1	0	0	61.3898	53.3812	59.6169	3.96058	59.39	21.8221	3.91661	79.3669	137.5	138.5	132.462	46.5625	128.091	89.5288	65.2596	193.644	33.655	212.546	26.921	352.603	202.487	197.521	218.401	198.323	8192	-8191	8192	8192	254	
77110.906	1	1	0	0	64.0777	61.0078	61.1832	2.49971	50.2341	24.5717	10.9327	79.7239	135.135	145.106	131.212	47.6346	127.736	92.8654	60.8221	192.572	24.841	219.311	16.797	73.094	198.953	205.177	213.433	201.271	8192	-8191	8192	8192	254	
77110.961	1	1	0	0	59.6236	64.4855	58.8229	5.14684	47.3695	21.8039	9.88016	89.6091	137.106	151.072	132.226	48.5721	121.572	92.4615	63.0096	195.404	26.102	217.085	27.465	224.429	211.333	213.489	212.624	201.232	8192	-8191	8192	8192	254	
77111.008	1	1	0	0	60.6801	56.0608	52.3336	2.34374	47.9308	30.1111	13.5211	78.2805	137.312	143.76	131.212	46.5096	125.115	96.7115	67.0865	197.466	22.247	213.236	18.836	77.134	199.967	201.005	197.484	202.731	8192	-8191	8192	8192	254	
77111.055	1	1	0	0	48.3303	53.8173	46.8554	5.04162	52.8205	20.5854	7.84792	69.7466	136.072	142.471	129.649	51.0385	124.409	91.8558	64.9183	185.688	30.831	210.431	26.924	175.408	212.358	200.370	198.121	196.708	8192	-8191	8192	8192	254	
77111.055	1	1	0	0	57.8414	54.456	51.2111	6.99294	49.4607	30.4294	13.2319	82.3211	136.399	143.558	127.822	49.9471	121.62	92.7548	66.3654	196.659	28.177	213.982	29.665	174.925	199.258	203.555	182.927	195.645	8192	-8191	8192	8192	254	
77111.102	1	1	0	0	56.9631	63.6233	64.9538	4.81257	51.6168	34.0845	10.2593	80.6107	139.26	141.168	140.226	48.3846	128.639	91.5625	59.9375	196.12	34.905	222.495	20.288	224.472	205.254	214.570	230.659	202.068	8192	-8191	8192	8192	254	
77111.148	1	1	0	0	66.0082	59.6143	50.9398	4.5275	59.1471	21.2117	3.78516	91.6894	135.986	144.986	127.077	50.8942	128.894	87.1683	66.6298	198.466	28.395	211.885	31.582	244.169	198.301	207.876	209.276	203.247	8192	-8191	8192	8192	254	
77111.195	1	1	0	0	64.0694	47.2491	51.6175	7.58073	56.2242	26.35	5.68033	76.5475	141.505	146.101	138.524	51.1683	126.875	90.2115	64.851	193.274	33.254	209.846	35.960	25.129	202.356	200.564	195.866	200.880	8192	-8191	8192	8192	254	
77111.273	1	1	0	0	61.8636	63.3986	58.1069	4.32869	52.8655	28.3777	10.7488	85.6974	138.471	138.962	134.433	48.6587	126.769	93.6058	69.6779	201.861	24.301	210.802	32.448	218.990	196.097	207.166	229.323	204.173	8192	-8191	8192	8192	254	
77111.320	1	1	0	0	64.3947	59.4139	50.534	4.65384	55.0703	28.4846	7.73958	82.3973	136.995	146.394	126.168	50.774	126.327	95.4808	61.851	195.269	30.351	219.080	30.567	21.522	204.825	192.936	205.768	206.493	8192	-8191	8192	8192	254	
77111.367	1	1	0	0	65.1741	68.0199	43.464	4.18641	52.8174	21.3898	11.5765	88.1757	141.197	145.558	130.337	52.9038	121.269	94.6731	64.5817	190.288	30.862	217.218	29.648	53.807	199.279	224.541	161.115	205.175	8192	-8191	8192	8192	254	
77111.414	1	1	0	0	57.3183	56.432	48.3802	6.20698	50.0394	18.3925	12.2675	74.0937	135.452	140.928	133.731	49.6827	130.438	89.5	66.1106	188.764	23.078	216.436	19.720	329.033	207.093	203.460	205.281	202.737	8192	-8191	8192	8192	254	
77111.461	1	1	0	0	62.8986	54.2131	43.2173	1.9974	59.0668	24.5401	12.8061	75.7738	139.918	138.726	126.514	50.2981	123.745	97.4279	64.4712	199.962	27.024	218.673	26.030	249.057	203.339	215.239	190.118	207.811	8192	-8191	8192	8192	254	
77111.508	1	1	0	0	54.8365	54.1885	57.3972	3.71558	49.6096	31.7949	13.9467	79.624	131.534	138.202	129.663	51.0385	121.803	93.9519	61.6875	189.913	33.026	216.978	18.536	233.602	199.759	198.163	238.180	201.294	8192	-8191	8192	8192	254	
77111.555	1	1	0	0	50.6719	58.9669	51.132	3.059	59.2925	27.627	11.8882	86.9567	137.192	147.139	129.861	47.4471	131.885	89.6971	61.8558	197.75	38.153	224.883	28.401	234.605	203.148	208.103	209.134	205.930	8192	-8191	8192	8192	254	
77111.609	1	1	0	0	47.4536	59.9922	54.7967	2.73934	54.7524	27.3222	3.0734	79.4933	132.476	144.341	133.567	50.6875	126.428	93.1971	63.024	191.216	36.632	214.503	35.423	17.764	201.452	205.448	202.348	196.055	8192	-8191	8192	8192	254	
77111.680	1	1	0	0	56.0591	66.9179	54.9646	7.26917	48.779	28.9681	7.19021	95.4231	129.543	147.476	130.014	53.2404	129.13	94.6635	65.3029	198.341	27.684	223.284	29.274	329.946	207.933	211.315	181.416	196.425	8192	-8191	8192	8192	254	
77111.727	1	1	0	0	56.6629	51.22	58.2161	4.23105	51.0943	34.096	9.73903	80.1662	138.288	152.236	131.668	52.8173	120.49	99.4519	63.6058	194.697	23.573	226.119	23.271	54.014	196.475	196.664	166.025	198.783	8192	-8191	8192	8192	254	
77111.773	1	1	0	0	64.6137	48.1248	56.7057	1.34716	48.6364	19.5886	7.92508	97.6486	142.909	144.312	130.986	48.4808	122.524	90.4952	67.2067	201.74	26.839	221.621	23.580	161.805	200.947	214.719	180.168	203.412	8192	-8191	8192	8192	254	
77111.820	1	1	0	0	56.604	55.3472	54.0733	4.20919	62.1567	29.344	13.3428	92.6363	134.856	148.01	130.067	46.2019	131.245	94.0625	64.7308	204.01	26.721	223.082	29.429	105.590	205.826	204.159	227.174	202.627	8192	-8191	8192	8192	254	
77111.820	1	1	8	0	61.4878	59.7477	60.4488	7.0993	46.353	31.246	11.8767	82.8028	137.966	146.365	134.337	52.4375	123.865	94.4038	64.2885	195.404	32.772	220.838	30.564	210.283	195.577	206.861	203.807	203.515	8192	-8191	8192	8192	254	
77111.867	1	1	0	0	62.4876	64.7385	56.4082	0.463387	48.6692	32.2324	10.9754	85.7857	145.091	145.279	133.736	45.5721	124.466	95.9471	67.4087	192.962	30.281	212.325	32.297	204.536	205.249	209.566	187.884	201.605	8192	-8191	8192	8192	254	
77111.938	1	1	0	0	59.7871	55.1718	52.4559	6.26454	59.5861	27.4567	6.8003	74.2355	134.736	143.399	135.24	53.7981	124.053	93.2115	63.4038	192.337	28.301	213.415	12.544	170.957	204.388	208.710	186.291	202.016	8192	-8191	8192	8192	254	
77111.992	1	1	0	0	61.9441	58.7396	49.1786	2.80877	59.8356	25.1117	10.0065	96.5193	134.577	146.486	133.5	45.7548	125.183	94.0096	66.4423	201.26	21.725	215.394	23.766	70.734	208.832	216.651	213.531	197.809	8192	-8191	8192	8192	254	
77112.039	1	1	0	0	59.1139	58.6035	53.7099	5.61792	46.8739	33.8373	6.91486	83.729	138.74	141.962	127.928	54.6058	126.12	94.2981	64.3654	194.962	27.420	221.950	25.417	111.992	200.973	201.087	203.007	203.333	8192	-8191	8192	8192	254	
77112.086	1	1	0	0	59.6248	64.3784	59.6524	1.79957	50.3297	18.356	3.27887	71.7964	142.173	143.942	134.394	53.0337	117.452	90.0817	64.3606	187.558	29.403	216.950	30.698	163.602	197.694	209.228	208.258	199.862	8192	-8191	8192	8192	254	
77112.133	1	1	0	0	56.9646	63.1033	47.9309	5.08488	52.8907	25.1689	10.532	81.246	139.678	142.534	129.115	52.1875	127.014	92.7067	60.7308	189.274	34.964	221.768	26.016	334.025	205.939	186.413	213.816	197.994	8192	-8191	8192	8192	254	
77112.180	1	1	0	0	59.1333	52.3242	56.2508	4.4155	43.6549	28.4707	8.61556	84.5815	135.837	136.12	132.269	43.9952	125.731	95.0481	64.6875	197.861	26.186	216.533	30.684	329.861	206.102	204.676	216.640	200.143	8192	-8191	8192	8192	254	
77112.227	1	1	0	0	55.9507	57.393	64.8888	2.70966	53.385	33.9684	10.2198	75.9289	139.62	138.481	135.24	56.4471	121.264	91.8558	64.9135	188.442	39.572	222.640	31.672	231.881	203.718	200.289	220.258	203.189	8192	-8191	8192	8192	254	
77112.281	1	1	0	0	58.3851	63.7461	53.0719	4.04533	61.6994	29.2139	11.4694	93.787	133.543	149.51	138.596	52.649	129.356	92.3173	67.5144	198.394	30.518	225.486	20.970	200.888	195.381	200.487	211.815	202.567	8192	-8191	8192	8192	254	
77112.352	1	1	0	0	55.1777	49.7629	58.6345	5.07773	47.1019	26.439	7.65589	88.1314	135.524	137.01	133.13	50.9135	122.288	93.1394	62.0048	201.784	31.507	210.861	25.983	312.232	213.788	193.301	103.437	197.906	8192	-8191	8192	8192	254	
77112.398	1	1	0	0	53.6688	58.8303	57.4332	1.63817	50.8954	18.5435	5.53136	81.6708	137.115	148.409	130.63	49.3462	126.625	89.7212	69.2596	197.014	26.952	201.681	30.206	274.857	209.740	190.947	221.084	203.765	8192	-8191	8192	8192	254	
77112.445	1	1	0	0	59.8707	56.0506	58.69	2.83949	59.133	27.7551	8.04152	83.7718	133.856	143.005	129.274	55.2548	129.111	96.6971	67.851	192.337	18.028	217.066	23.421	6.458	208.877	198.760	160.374	208.348	8192	-8191	8192	8192	254	
77112.492	1	1	0	0	56.1507	62.4849	58.8637	10.2596	59.3613	21.5366	6.94369	80.6107	133.231	144.466	138.404	50.9327	129.697	86.2788	64.899	191.029	24.294	220.466	27.662	261.565	194.012	212.188	245.606	203.414	8192	-8191	8192	8192	254	
#DATA ENDS
