BOXY.EXE: ISS Imagent Data Acquisition Program Version 0.82
Ascii Record File

#ACQ INFORMATION
1  Detector Channels 
8  External MUX Channels 
4  Auxiliary Analog Channels 
5000  Waveform (CCF) Frequency (Hz)
4  Waveforms Skipped 
26  Waveforms Averaged 
1  Cycles Averaged 
8  Acquisitions per Waveform 
1  Auxiliary Digital Channels 

#Data Update Rate
20.8333  Update Rate (Hz) 
FALSE -- Use Phase Reference
FALSE -- Use Continuous Phase Reference
FALSE -- Use Intensity Reference
FALSE -- Use Continuous Intensity Reference

#FILE INFORMATION
TRUE -- External MUX Channel results are PARSED.
FALSE -- AC DC and Phase are NOT grouped.
TRUE -- Companion Program Settings File CREATED.
FALSE -- AC data not excluded
FALSE -- DC data not excluded
FALSE -- Phase data not excluded
FALSE -- Auxillary Chn. data not excluded
Tab delimiters

#CALIBRATION STATE
FALSE -- Waveform Calibration Values NOT applied.

#WAVELENGTH DATA
Wavelength Index	Wavelength	Comp1 ExtCoef	Comp2 ExtCoef	Comp3 ExtCoef	Comp4 ExtCoef	BackGround	Weight	

1	6.600e+02	1.486e+00	3.844e+00	1.000e+00	1.000e+00	1.890e-02	1.000e+00	
2	6.900e+02	2.315e+00	1.792e+00	1.000e+00	1.000e+00	2.180e-02	1.000e+00	
3	7.500e+02	1.000e+00	1.000e+00	1.000e+00	1.000e+00	3.010e-03	1.000e+00	
4	7.750e+02	1.000e+00	1.000e+00	1.000e+00	1.000e+00	3.240e-03	1.000e+00	
5	7.850e+02	1.000e+00	1.000e+00	1.000e+00	1.000e+00	1.660e-02	1.000e+00	
6	8.000e+02	1.000e+00	1.000e+00	1.000e+00	1.000e+00	1.480e-02	1.000e+00	
7	8.250e+02	1.000e+00	1.000e+00	1.000e+00	1.000e+00	1.620e-02	1.000e+00	
8	8.300e+02	1.000e+00	1.000e+00	1.000e+00	1.000e+00	2.620e-02	1.000e+00	


#AUX CALIBRATION VALUES
Val Type	aux-1	aux-2	aux-3	aux-4	

Term	0.0000e+00	0.0000e+00	0.0000e+00	0.0000e+00	
Factor	1.0000e+00	1.0000e+00	1.0000e+00	1.0000e+00	


#WF CALIBRATION VALUES
A = Detector Channel
Val Type	A-AC1	A-AC2	A-AC3	A-AC4	A-AC5	A-AC6	A-AC7	A-AC8	A-DC1	A-DC2	A-DC3	A-DC4	A-DC5	A-DC6	A-DC7	A-DC8	A-Ph1	A-Ph2	A-Ph3	A-Ph4	A-Ph5	A-Ph6	A-Ph7	A-Ph8	

Term	0.00000e+00	0.00000e+00	0.00000e+00	0.00000e+00	0.00000e+00	0.00000e+00	0.00000e+00	0.00000e+00	0.00000e+00	0.00000e+00	0.00000e+00	0.00000e+00	0.00000e+00	0.00000e+00	0.00000e+00	0.00000e+00	-1.05892e+02	-9.99249e+01	-2.86485e+02	-2.62799e+02	-2.45797e+02	-2.48632e+02	-7.72400e+01	-7.86612e+01	
Factor	3.48934e-02	2.88771e-02	2.23541e-02	4.58344e-02	3.11822e-02	3.92311e-02	3.80806e-02	2.80088e-02	4.70955e+01	8.07534e+01	3.66973e+01	1.04434e+02	6.45565e+01	3.94082e+01	9.13796e+01	5.49806e+01	X	X	X	X	X	X	X	X	



#DISTANCE SETTINGS
A = Detector Channel
A-1	A-2	A-3	A-4	A-5	A-6	A-7	A-8	

1.5000e+00	1.5000e+00	1.5000e+00	1.5000e+00	1.5000e+00	1.5000e+00	1.5000e+00	1.5000e+00	



#ADDITIONAL SIGNAL INFORMATION
A = Detector Channel
Info. Type	A-1	A-2	A-3	A-4	A-5	A-6	A-7	A-8	

cal. block. ind.	1	1	1	1	1	1	1	1	
wavelength ind.	0	1	2	3	4	5	6	7	
weight	1.0000e+00	1.0000e+00	1.0000e+00	1.0000e+00	1.0000e+00	1.0000e+00	1.0000e+00	1.0000e+00	


#CALIBRATION BLOCK OPTICAL PROPS
Calib. Block Num.	WaveLen Index	Absorption	Scattering	

1	1	1.080e-01	9.000e+00	
1	2	1.300e-01	1.070e+01	
1	3	1.130e-01	9.400e+00	
1	4	1.210e-01	1.000e+01	
1	5	1.080e-01	9.000e+00	
1	6	1.300e-01	1.070e+01	
1	7	1.150e-01	9.600e+00	
1	8	1.330e-01	1.090e+01	

Calib. Block Num.	WaveLen Index	Absorption	Scattering	

2	1	1.120e-01	4.400e+00	
2	2	1.200e-01	5.700e+00	
2	3	1.140e-01	4.600e+00	
2	4	1.160e-01	5.100e+00	
2	5	1.120e-01	4.400e+00	
2	6	1.200e-01	5.700e+00	
2	7	1.150e-01	4.800e+00	
2	8	1.210e-01	6.000e+00	

Calib. Block Num.	WaveLen Index	Absorption	Scattering	

3	1	9.300e-02	8.700e+00	
3	2	1.010e-01	1.040e+01	
3	3	9.500e-02	9.000e+00	
3	4	9.700e-02	9.600e+00	
3	5	9.300e-02	8.700e+00	
3	6	1.010e-01	1.040e+01	
3	7	9.600e-02	9.300e+00	
3	8	1.030e-01	1.080e+01	

Calib. Block Num.	WaveLen Index	Absorption	Scattering	

4	1	1.000e-01	1.000e+01	
4	2	1.000e-01	1.000e+01	
4	3	1.000e-01	1.000e+01	
4	4	1.000e-01	1.000e+01	
4	5	1.000e-01	1.000e+01	
4	6	1.000e-01	1.000e+01	
4	7	1.000e-01	1.000e+01	
4	8	1.000e-01	1.000e+01	



#DATA BEGINS
time	group	step	mark	flag	A-AC1	A-AC2	A-AC3	A-AC4	A-AC5	A-AC6	A-AC7	A-AC8	A-DC1	A-DC2	A-DC3	A-DC4	A-DC5	A-DC6	A-DC7	A-DC8	A-Ph1	A-Ph2	A-Ph3	A-Ph4	A-Ph5	A-Ph6	A-Ph7	A-Ph8	aux-1	aux-2	aux-3	aux-4	digaux	

77125.164	1	1	0	768	3642.47	8.18599	3504.4	1707.52	498.158	5049.86	4.7968	6.55954	5564.1	60.7837	5109.89	2664.84	907.913	8800.52	49.4904	48.1731	163.469	57.299	338.100	341.483	344.145	338.999	156.353	299.797	8192	-8191	8192	8192	254	
77125.211	1	1	0	0	4666.44	4926.85	4236.77	5.61354	3574.14	1678.51	512.837	5196.02	6879.55	7939.44	6466.2	58.274	5139.1	2630.23	925.231	8925.19	163.700	352.173	162.882	26.182	337.945	342.775	346.672	339.130	8192	-8191	8192	8192	254	
77125.289	1	1	0	0	4633.87	4936.22	4263.68	4.45104	3538.28	1641.36	519.64	5088.73	6831.06	7936.88	6493.48	58.1298	5151.45	2630.6	919.966	8870.9	163.481	351.252	162.722	69.930	338.038	343.697	345.600	339.602	8192	-8191	8192	8192	254	
77125.336	1	1	0	0	4636.67	4940.24	4258.04	11.24	3501.97	1634.8	505.879	5171.91	6837.2	7993.12	6537.13	62	5102.08	2608.53	918.019	8879.05	163.856	352.122	162.477	345.727	338.359	341.433	345.993	338.546	8192	-8191	8192	8192	254	
77125.383	1	1	0	0	4604.2	4863.79	4320.67	7.04325	3515.42	1665.95	523.083	5049.55	6837.52	7942.99	6616.47	56.9471	5075.11	2629.25	929.688	8770.35	163.312	351.777	162.314	335.142	339.137	341.877	344.431	339.279	8192	-8191	8192	8192	254	
77125.430	1	1	0	0	4736.32	4843.55	4307.13	5.78673	3487.61	1668.3	514.052	5043.64	6945.44	7907.1	6629.43	55.8462	5144.88	2640.96	912.981	8723.34	163.492	350.561	162.762	320.233	338.104	342.714	344.185	339.277	8192	-8191	8192	8192	254	
77125.477	1	1	0	0	4698.43	4883.22	4371.25	5.92281	3509.88	1671.92	543.243	5075.53	6887.22	7950.97	6618.1	58.524	5154.97	2637.94	932.317	8746.14	163.958	351.249	162.389	345.090	338.818	341.172	343.751	339.885	8192	-8191	8192	8192	254	
77125.523	1	1	0	0	4729.96	4943.64	4304.5	4.45174	3533.06	1685.64	503.654	5099.43	6938.38	7963.66	6609.92	60.649	5119.95	2622.88	915.106	8814.4	163.336	351.144	162.078	174.128	338.598	341.902	347.792	339.292	8192	-8191	8192	8192	254	
77125.578	1	1	0	0	4669.23	4816.56	4306.17	8.11295	3490.78	1680.28	512.707	5101.59	6861.53	7891.08	6663.92	60.2308	5090.78	2648.44	914.394	8840.66	163.280	351.517	162.380	350.145	338.270	342.336	345.385	338.486	8192	-8191	8192	8192	254	
77125.625	1	1	0	0	4628.18	4845.42	4317.43	11.4128	3546.79	1680.15	536.631	5125.17	6827.85	7896.35	6594.98	63.9471	5123.15	2655.67	918.673	8841.35	162.844	351.641	162.044	26.439	339.347	342.466	343.850	338.776	8192	-8191	8192	8192	254	
77125.695	1	1	0	0	4720.85	4923.43	4398.97	9.65456	3579.27	1692.58	515.523	5098.62	6880.65	7925.37	6676.5	59.3125	5131.88	2645.1	907.144	8843.21	163.063	352.076	162.406	347.667	338.296	343.367	343.637	339.117	8192	-8191	8192	8192	254	
77125.742	1	1	0	0	4729.66	4866.96	4391.19	3.64003	3498.38	1659.69	538.341	5057.31	6913.3	7913.63	6628.43	58.6731	5123.4	2611.01	917.25	8778.19	163.206	351.199	162.159	3.918	338.118	341.160	346.756	338.671	8192	-8191	8192	8192	254	
77125.789	1	1	0	0	4654.01	4954.53	4351.79	1.56015	3562.2	1629.48	494.694	5126	6858.11	7928.96	6647.2	60.7981	5114.31	2591.5	901.793	8814.13	163.834	352.382	162.350	327.176	339.289	341.271	345.442	339.148	8192	-8191	8192	8192	254	
77125.836	1	1	0	0	4675.71	4870.55	4350.82	9.60629	3492.54	1644.57	513.916	5132.09	6906.97	7865.84	6638	57.4519	5101.71	2604.72	915.495	8807.25	163.819	351.430	162.011	343.386	339.481	342.075	345.825	339.599	8192	-8191	8192	8192	254	
77125.883	1	1	0	0	4655.88	4884.45	4467.62	5.39647	3527.91	1655.92	513.315	5154.76	6883.47	7901.22	6707.79	61.2308	5132.05	2623.08	917.562	8850.89	162.786	351.981	162.639	5.709	338.840	342.530	344.647	339.487	8192	-8191	8192	8192	254	
77125.938	1	1	0	0	4647.96	4857.61	4381.23	2.88071	3564.15	1669.6	516.444	5069.13	6881.22	7909.31	6642.21	57.0096	5159.91	2621.98	915.894	8825.68	162.610	351.506	162.114	343.052	338.886	342.219	347.019	339.321	8192	-8191	8192	8192	254	
77125.938	1	1	1	0	4693.75	4841.13	4351.76	8.85252	3483.95	1674.04	525.322	5072.78	6887.1	7951.53	6641.87	58.0048	5088.35	2598.25	917.341	8836.87	163.553	352.533	162.256	346.236	338.505	342.213	344.777	338.786	8192	-8191	8192	8192	254	
77125.984	1	1	0	0	4638.29	5033.21	4389.79	13.6425	3519.35	1654.35	522.705	5087.23	6889.73	7967.27	6664.84	58.5865	5132.39	2641.44	925.029	8811.82	164.041	350.832	162.313	314.821	338.457	341.544	344.251	338.839	8192	-8191	8192	8192	254	
77126.031	1	1	0	0	4610.81	4919.48	4406.1	3.93489	3552.77	1666.83	513.004	5105.93	6819.52	7932.96	6683.63	54.7115	5124.05	2621.99	911.149	8763.36	164.047	352.176	162.398	22.873	338.589	342.056	345.512	339.095	8192	-8191	8192	8192	254	
77126.078	1	1	0	0	4671.29	4933.36	4416.83	3.69751	3556.05	1677.01	517.023	5056.6	6879.1	7929.2	6700.83	59.1202	5128.97	2616.12	931.106	8782.64	163.042	351.458	162.302	343.206	339.405	342.227	346.105	338.933	8192	-8191	8192	8192	254	
77126.148	1	1	0	0	4701.4	4867.56	4255.25	7.50824	3550.95	1646.47	519.006	5093.19	6860.88	7909.43	6570.33	54.9471	5114.38	2622.37	914.692	8761.11	163.523	351.695	163.051	4.190	338.644	341.738	343.541	338.719	8192	-8191	8192	8192	254	
77126.195	1	1	0	0	4684.37	4878.97	4420.3	9.04636	3493.38	1664.64	495.153	5038.75	6896.42	7879.43	6638.5	66.6731	5115.47	2611.72	903.726	8828.77	163.111	352.093	161.801	48.832	338.928	341.546	343.829	338.668	8192	-8191	8192	8192	254	
77126.242	1	1	0	0	4770.6	4877.29	4393.3	6.37464	3586.76	1650.44	485.037	5144.37	6918.5	7948.52	6682.03	57.3798	5174.66	2617.97	909.495	8868.96	163.499	352.211	161.838	19.619	338.201	342.914	347.120	339.169	8192	-8191	8192	8192	254	
77126.297	1	1	0	0	4659.23	4897.44	4366.57	10.1115	3574.77	1697.14	511.499	5076.22	6864.68	7928.12	6637.81	64.7356	5123.39	2656.39	915.024	8808.94	163.920	351.469	162.977	13.851	338.658	343.173	345.275	338.934	8192	-8191	8192	8192	254	
77126.344	1	1	0	0	4592.37	4942.26	4395.2	4.47465	3525.32	1652.2	513.837	5073.38	6827.25	7915.1	6690.69	64.25	5109.28	2625.59	915.558	8841.28	163.665	351.124	161.735	49.929	338.489	341.750	344.218	339.037	8192	-8191	8192	8192	254	
77126.391	1	1	0	0	4596.92	4920.9	4403.1	6.18914	3555.51	1615.15	513.344	5186.86	6830.69	7954.21	6716.47	62.4567	5113.95	2620.72	921.923	8876.29	162.881	351.721	162.849	21.310	337.884	342.496	344.427	337.809	8192	-8191	8192	8192	254	
77126.438	1	1	0	0	4584.04	4855.32	4373.97	10.9402	3534.57	1669.48	514.989	5038.93	6820.43	7896.21	6685.96	66.1587	5113.88	2639.09	918.452	8781.39	163.326	351.718	162.621	333.089	339.016	343.537	345.359	339.679	8192	-8191	8192	8192	254	
77126.484	1	1	0	0	4725.21	4877.64	4356.34	7.71073	3596.67	1697.48	511.393	5122.16	6908.06	7922.92	6610.67	61.5481	5194.67	2647.85	906.389	8816.64	163.228	351.921	162.639	54.210	338.621	342.291	346.362	338.985	8192	-8191	8192	8192	254	
77126.555	1	1	0	0	4635.42	4863.63	4348.23	7.69589	3553.75	1601.96	526.041	5092.17	6854.06	7885.81	6650.6	65.3846	5130.05	2600.82	933.51	8833	163.062	351.671	162.637	344.088	339.351	342.614	343.793	338.918	8192	-8191	8192	8192	254	
77126.609	1	1	0	0	4626.69	4915.88	4364.23	9.40867	3592.07	1697.77	509.489	5073.6	6844.94	7939.07	6688.71	64.851	5150.73	2663.31	924.62	8799.79	162.942	351.647	161.877	14.173	337.868	341.542	344.510	338.561	8192	-8191	8192	8192	254	
77126.656	1	1	0	0	4593.78	4883.9	4359.7	2.91694	3541.79	1639.83	527.45	5084.9	6837.77	7897.47	6675.86	59.4712	5133.58	2612.81	921.986	8803.43	163.251	351.273	162.298	192.244	338.293	342.849	344.311	338.480	8192	-8191	8192	8192	254	
77126.703	1	1	0	0	4686.18	4890.58	4424.91	6.18751	3535.19	1697.57	509.881	5062.32	6877.88	7913.58	6695.87	61.3125	5105.61	2647.46	905.5	8799.01	163.756	351.783	162.369	16.605	339.135	342.612	346.455	338.805	8192	-8191	8192	8192	254	
77126.703	1	1	0	0	4670.89	4939.23	4398.7	11.6964	3539	1662.38	517.944	5055.94	6869.34	7912.52	6651.52	56.8173	5131.19	2659	925.067	8810.95	163.150	351.830	162.261	359.408	338.315	342.379	346.229	338.718	8192	-8191	8192	8192	254	
77126.750	1	1	0	0	4635.38	4871.56	4357.54	10.4021	3483.85	1637.82	531.83	5118.96	6852.52	7925.48	6690.31	60.3462	5103.43	2613.8	919.952	8787.33	163.393	351.494	162.129	312.193	339.294	342.678	345.402	338.778	8192	-8191	8192	8192	254	
77126.820	1	1	0	0	4632.61	4881.29	4317.8	6.83189	3496.03	1638.13	512.094	5142.7	6883	7914.04	6633.1	59.5192	5104.25	2613.58	921.837	8881.7	163.185	351.415	163.198	333.131	338.687	341.962	344.269	339.287	8192	-8191	8192	8192	254	
77126.867	1	1	0	0	4635.25	4892.62	4352.32	4.61919	3504.42	1643.04	540.767	5092.95	6842.99	7893.72	6690.98	63.7548	5104.6	2619.4	913.913	8767.45	163.503	351.289	162.044	99.180	339.233	341.752	344.616	338.937	8192	-8191	8192	8192	254	
77126.922	1	1	0	0	4713.83	4942.1	4375.17	6.51356	3547.24	1619.49	526.406	5045.03	6898.02	7932.84	6634.03	55.6587	5127.29	2610.08	915.236	8760.28	163.869	351.657	161.825	356.256	338.319	342.913	345.190	340.271	8192	-8191	8192	8192	254	
77126.969	1	1	0	0	4668.65	4902.07	4390.25	5.99434	3568.9	1626.94	497.227	5047.21	6859.57	7908.97	6648.2	54.6538	5130.78	2611.8	906.341	8805.64	163.537	351.734	161.682	24.598	338.802	341.666	349.647	338.889	8192	-8191	8192	8192	254	
77127.016	1	1	0	0	4682.23	4848.81	4338.95	4.00443	3624.46	1692.84	512.546	5135.95	6858.24	7893.95	6628.83	56.5913	5168.3	2625.58	899.582	8838.47	163.304	352.036	161.924	329.885	338.819	342.136	346.825	338.672	8192	-8191	8192	8192	254	
77127.062	1	1	0	0	4694.7	4903.63	4379.74	5.47824	3546.21	1658.61	510.738	5033.65	6868.63	7880.75	6675.05	55.3846	5107.88	2628.46	927.072	8775.1	163.750	351.811	162.646	340.614	339.299	341.689	346.424	339.254	8192	-8191	8192	8192	254	
77127.109	1	1	0	0	4639.33	4885.19	4384.11	3.30717	3606.2	1628.52	542.342	5100.46	6841.84	7915.92	6668.21	59.1875	5139.55	2602.36	925.885	8828.48	164.277	350.707	161.931	338.466	338.925	342.790	343.577	338.646	8192	-8191	8192	8192	254	
77127.156	1	1	0	0	4650.1	4906.76	4409.55	9.1828	3503.38	1654.25	517.421	5105.39	6843.62	7947.38	6688.75	59.5817	5096.25	2642.43	913.697	8825.2	162.851	352.504	162.209	352.226	338.758	341.503	347.486	338.963	8192	-8191	8192	8192	254	
77127.203	1	1	0	0	4691.08	4799.23	4310	6.93691	3542.42	1694.27	498.746	5128.55	6902.39	7861.86	6650.29	60.5288	5123.61	2661.42	898.606	8811.8	164.149	352.068	162.062	349.231	338.807	342.183	346.951	338.650	8192	-8191	8192	8192	254	
77127.258	1	1	0	0	4685.41	4934.1	4420.4	2.97064	3513.69	1640.51	540.817	5006.32	6903.34	7928.67	6690.6	49.274	5102.08	2617.58	931.144	8781.31	163.602	351.444	162.156	356.404	339.520	343.530	346.505	339.255	8192	-8191	8192	8192	254	
77127.328	1	1	0	0	4679.98	4897.71	4420.69	1.15082	3579.03	1653.13	531.955	5048.05	6871.12	7900.5	6691.22	58.8221	5128.38	2605.11	909.12	8789.02	163.174	351.343	162.533	258.132	338.308	342.966	342.849	338.905	8192	-8191	8192	8192	254	
77127.375	1	1	0	0	4605.17	5032.32	4305.62	9.24006	3539.57	1635.76	506.056	5083.35	6820.31	7981.26	6626.86	54.4952	5097.89	2602.11	901.438	8811.56	163.045	351.083	162.166	350.770	338.099	341.803	345.571	339.067	8192	-8191	8192	8192	254	
77127.422	1	1	0	0	4654.5	4887.74	4384.66	10.6412	3502.49	1623.02	514.932	5084.99	6888.74	7942.3	6680.61	59.7067	5103.86	2597.08	909.558	8783.44	163.830	351.690	162.729	8.782	338.402	343.106	345.762	338.252	8192	-8191	8192	8192	254	
77127.469	1	1	0	0	4729.45	4885.91	4354.02	6.00033	3480.8	1650.17	500.509	5086.58	6942.66	7901.26	6641.9	56.1154	5094.8	2618.28	917.678	8777.04	162.629	351.294	162.615	53.663	338.370	343.360	347.670	337.855	8192	-8191	8192	8192	254	
77127.469	1	1	0	0	4629.04	4975.08	4383.68	10.1255	3515.63	1661.67	536.019	5095.92	6815.71	7980.9	6671.64	55.0769	5075.39	2630.45	937.029	8797.68	163.801	352.048	162.573	356.111	337.992	341.451	344.173	338.986	8192	-8191	8192	8192	254	
77127.516	1	1	0	0	4709.89	4896.91	4409.3	9.88226	3492.75	1653.83	514.435	4979.82	6918.26	7916.28	6685.57	56.6106	5084.79	2637.47	920.981	8749.78	163.548	352.178	161.626	339.120	338.280	342.148	346.188	339.218	8192	-8191	8192	8192	254	
77127.594	1	1	0	0	4646.09	4897.57	4351.17	10.3675	3555.62	1642.84	526.21	5101.72	6821.36	7850.04	6647.25	59.3462	5119	2632.91	906.981	8793.8	163.458	351.347	162.926	28.331	338.773	342.462	345.769	338.997	8192	-8191	8192	8192	254	
77127.641	1	1	0	0	4623.66	4947.65	4347.06	5.47387	3534.7	1623.99	536.928	5095.75	6834.44	7935.92	6679.25	60.0433	5120.81	2592.55	916.673	8794.63	163.410	351.593	162.122	358.488	338.569	342.111	345.393	339.421	8192	-8191	8192	8192	254	
77127.688	1	1	0	0	4578.39	4852.05	4424.38	3.47236	3547.44	1650.56	528.804	5094.28	6857.04	7899.42	6693.14	54.774	5117.5	2618.14	924.543	8772.76	163.705	351.356	162.978	336.410	337.725	342.736	346.501	338.828	8192	-8191	8192	8192	254	
77127.734	1	1	0	0	4677.58	4924.38	4405.34	7.00735	3484.58	1687.55	503.965	5046.32	6891.83	7890.41	6710.23	57.9087	5100.49	2635.46	928.697	8765.74	162.723	352.287	162.477	24.019	338.792	343.400	345.043	339.053	8192	-8191	8192	8192	254	
77127.781	1	1	0	0	4596.3	4868.5	4399.54	5.13082	3546.19	1619.09	504.075	5049.33	6816.51	7912.04	6699.17	55.0817	5133.9	2617.01	923.596	8782.72	163.167	351.477	162.180	66.858	338.829	342.683	345.437	338.922	8192	-8191	8192	8192	254	
77127.828	1	1	0	0	4659.89	4891.47	4363.51	9.21945	3572.75	1679.96	510.927	5115.07	6833.95	7933.05	6668.67	64.3317	5110.66	2625.99	906.322	8819.17	163.376	352.548	162.414	352.284	338.431	341.192	347.153	339.983	8192	-8191	8192	8192	254	
77127.875	1	1	0	0	4614.78	4900.19	4372.99	5.6883	3523.37	1682.88	513.086	5064.02	6833.74	7890.34	6670.18	54.2404	5118.73	2643.41	916.562	8746.01	163.185	351.829	162.082	341.056	338.853	341.870	346.580	338.733	8192	-8191	8192	8192	254	
77127.930	1	1	0	0	4629.28	4922.44	4410.28	7.86426	3543.36	1688.91	499.833	5057.05	6823.41	7914.42	6693.53	53.7163	5109.15	2653.11	904.909	8781.1	162.936	351.720	162.431	331.086	339.556	342.228	346.013	339.080	8192	-8191	8192	8192	254	
77128.000	1	1	0	0	4692.18	4881.66	4360.86	3.41644	3554.11	1672.33	525.37	5095.27	6882.45	7862.94	6652.99	64.5865	5109.14	2644.72	922.769	8808.22	163.797	351.539	162.560	216.816	338.550	342.799	343.815	338.853	8192	-8191	8192	8192	254	
77128.047	1	1	0	0	4656.23	4887.56	4349.19	2.3669	3565.48	1649.75	518.282	5092.97	6871.51	7885.81	6673.51	56.8029	5138.2	2611.54	906.413	8779.43	163.188	352.235	162.208	334.578	337.960	341.939	343.983	339.094	8192	-8191	8192	8192	254	
77128.094	1	1	0	0	4684.33	4867.8	4328.18	3.26718	3515.6	1654.15	509.119	5118.73	6860.49	7891.06	6625.96	58.9663	5079.97	2640.85	902.231	8817.69	162.925	351.571	161.657	315.606	338.398	343.143	347.922	338.990	8192	-8191	8192	8192	254	
77128.141	1	1	0	0	4638.17	4913.82	4392.36	5.71122	3599.73	1651.08	506.914	5058.44	6879.12	7902.02	6665.58	61.1779	5132.99	2631.9	910.995	8738.56	163.098	351.886	161.642	27.128	338.253	341.771	346.330	338.716	8192	-8191	8192	8192	254	
77128.188	1	1	0	0	4671.5	4813.28	4447.89	10.6799	3470.12	1678.04	511.67	5028.87	6850.93	7876.29	6696.57	60.4519	5075.22	2647.29	931.543	8791.79	163.056	351.474	162.080	344.426	339.008	341.977	344.502	339.082	8192	-8191	8192	8192	254	
77128.242	1	1	0	0	4636.28	4864.44	4344.1	0.526282	3527.15	1615.88	509.567	5023.64	6836.93	7913.75	6629.95	62.0529	5114.13	2599.4	912.183	8763.32	163.156	351.792	161.559	264.877	339.185	341.948	346.552	338.985	8192	-8191	8192	8192	254	
77128.234	1	1	0	0	4604.92	4928.71	4376.51	4.23649	3521.85	1659.19	516.171	5132.23	6846.6	7893.41	6657.09	55.3029	5136.62	2642.61	925.274	8836.98	163.303	351.937	161.970	28.740	338.379	342.138	344.786	338.920	8192	-8191	8192	8192	254	
77128.289	1	1	0	0	4650.94	4895.36	4401.14	8.0204	3518.87	1677.46	517.279	5070.34	6861.47	7955	6648.5	64.3413	5116.51	2630.57	934.957	8759.15	163.524	351.596	162.512	40.209	338.449	344.043	347.549	338.111	8192	-8191	8192	8192	254	
77128.336	1	1	0	0	4646.82	4901.43	4397.77	8.65122	3528.79	1657.86	519.656	5004.3	6886.79	7916.85	6669.37	74.6731	5096.19	2622.31	930.255	8804.31	163.633	351.934	162.247	267.443	339.077	343.772	347.137	339.047	8192	-8191	8192	8192	254	
77128.383	1	1	0	0	4572.4	4933.95	4398.26	6.07742	3582.17	1657.97	503.637	5081.18	6846.65	7936.95	6703.86	77.1683	5114.81	2628.94	933.5	8805	163.291	351.756	162.152	348.414	338.804	341.144	345.318	338.937	8192	-8191	8192	8192	254	
77128.453	1	1	0	0	4708.55	4929.42	4403.36	0.949022	3469.37	1634.08	550.375	5070.25	6883.81	7953.24	6714.21	88.2115	5145.77	2640.03	971.101	8844.41	163.440	351.345	161.800	251.839	338.496	341.394	346.498	338.011	8192	-8191	8192	8192	254	
77128.500	1	1	0	0	4612.14	4905.97	4289.46	8.47658	3561.54	1630.38	530.673	5044.3	6869.04	7972.3	6642.73	94.3702	5160.79	2627.78	956.413	8799.99	163.246	351.707	163.022	34.873	338.904	340.906	345.786	338.803	8192	-8191	8192	8192	254	
77128.555	1	1	0	0	4683.02	4934.2	4445.49	8.36592	3542.51	1648.14	521.761	5084.39	6899.47	7991.13	6682.83	100.236	5166.09	2642.48	947.418	8808.3	163.012	351.127	162.486	81.603	339.066	341.402	342.470	338.707	8192	-8191	8192	8192	254	
77128.602	1	1	0	0	4632.8	4972.81	4327.56	11.0766	3522.25	1659.37	546.596	5078.54	6870.2	8054.92	6677.74	97.524	5139.55	2644.05	948.697	8846.6	163.336	351.280	162.057	50.007	338.477	342.508	344.697	338.981	8192	-8191	8192	8192	254	
77128.648	1	1	0	0	4741.87	4890.84	4416.71	6.27261	3561.41	1676.76	535.675	5069.37	6904.43	7953.12	6752.31	86.8029	5174.58	2654.74	960.043	8842.78	163.726	351.870	162.143	333.771	339.282	343.640	346.564	339.149	8192	-8191	8192	8192	254	
77128.695	1	1	0	0	4642.99	4895.58	4384.32	8.87115	3571.33	1650.29	491.115	5086.52	6881.36	7956.89	6683.22	92.5	5148.15	2658.66	927.168	8785.5	163.420	351.637	162.857	28.608	338.472	342.081	344.286	338.097	8192	-8191	8192	8192	254	
77128.742	1	1	0	0	4618.82	4904.28	4359.72	4.43405	3557.54	1656.36	506.002	5116.9	6853.68	7971.24	6704.54	91.4519	5154.25	2643.39	956.745	8865.59	163.268	352.065	162.411	351.000	339.170	342.290	342.186	339.169	8192	-8191	8192	8192	254	
77128.789	1	1	0	0	4653.98	4899.94	4300.34	3.27072	3472.95	1651.73	512.015	5105.86	6903.78	7936.76	6680.16	96.1202	5135.94	2672.72	949.394	8846.52	163.982	351.439	162.188	6.375	338.924	343.266	347.137	339.157	8192	-8191	8192	8192	254	
77128.859	1	1	0	0	4664.3	4913.33	4358.48	9.62531	3589.63	1665.47	531.683	5097.83	6892.73	7946.16	6668.36	95.9663	5198.69	2676.26	959.466	8869.65	163.324	351.485	162.412	304.297	337.686	342.245	344.598	338.954	8192	-8191	8192	8192	254	
77128.914	1	1	0	0	4659.14	4963.4	4387.32	9.53199	3484.94	1657.29	523.413	4996.88	6903.4	7995	6672.13	92.1298	5095.05	2651.55	928.899	8759.77	163.459	351.754	163.365	32.340	338.198	342.150	345.096	339.519	8192	-8191	8192	8192	254	
77128.961	1	1	0	0	4626.72	4918.7	4435.4	7.70499	3532.09	1623.93	521.83	5082.1	6877.63	7909.35	6691.6	52.9663	5131.06	2593.38	922.596	8788.72	163.192	351.022	162.440	0.908	338.652	342.103	345.607	338.740	8192	-8191	8192	8192	254	
77129.008	1	1	0	0	4648.59	4969.12	4416.48	5.5007	3555.15	1693.93	544.082	4966.14	6845	7947.32	6725.14	53.8029	5118.42	2648.87	934.111	8728.72	163.610	351.879	162.376	335.078	338.106	342.280	346.166	339.108	8192	-8191	8192	8192	254	
77129.008	1	1	0	0	4621.38	4926.26	4413.38	8.64256	3535.04	1647.75	525.261	5084.65	6832.05	7947.46	6675.21	54.8606	5137.22	2601.97	923.841	8828.96	163.131	351.875	162.687	352.037	338.994	342.285	346.971	339.056	8192	-8191	8192	8192	254	
77129.055	1	1	0	0	4653.44	4883.47	4406.92	3.7407	3553.81	1647.65	523.545	5032.32	6874.41	7906.53	6660.14	54.3942	5125.34	2620.01	901.303	8812.87	163.821	351.002	161.743	184.153	338.759	343.033	345.390	338.595	8192	-8191	8192	8192	254	
77129.125	1	1	0	0	4619.44	4831.64	4383.87	3.93403	3487.55	1666.19	503.067	5085.55	6840.21	7839.65	6668.1	54.1827	5106.84	2633.29	914.731	8771.47	163.452	351.484	161.475	44.765	338.389	341.854	345.850	338.802	8192	-8191	8192	8192	254	
77129.172	1	1	0	0	4625.16	4867.24	4318.21	8.89373	3522.48	1655.34	493.083	5026.08	6868.74	7879.74	6651.83	58.4615	5111.89	2625.77	910.341	8791.89	163.861	351.551	162.576	17.699	338.632	342.143	344.481	339.428	8192	-8191	8192	8192	254	
77129.227	1	1	0	0	4644.26	4912.27	4347.23	4.52033	3494.7	1691.41	546.386	5054.48	6854.18	7923.55	6664.94	61.0385	5081.9	2631.5	931.163	8832.2	163.665	352.017	162.132	347.355	338.473	343.243	342.385	339.756	8192	-8191	8192	8192	254	
77129.273	1	1	0	0	4685.49	4808.41	4320.55	4.78026	3510.79	1684.12	518.759	5056.88	6850.56	7863.46	6609.42	58.5721	5069	2630.76	907.178	8763.91	163.669	351.794	163.100	19.104	338.048	342.081	345.463	339.033	8192	-8191	8192	8192	254	
77129.320	1	1	2	0	4702.69	4897.41	4411.11	4.84996	3562.81	1647.78	516.191	5082.55	6879.75	7916.76	6691	59.7308	5130.05	2637.7	930.572	8793.7	162.992	352.183	162.010	333.208	337.465	342.408	345.725	338.910	8192	-8191	8192	8192	254	
77129.367	1	1	0	0	4669.05	4799.92	4394.82	9.9376	3491.71	1618.86	522.337	5109.24	6867.66	7873.04	6671.69	54.75	5096.99	2592.5	913.587	8807.91	162.789	351.040	162.225	357.499	338.886	342.786	343.938	338.034	8192	-8191	8192	8192	254	
77129.414	1	1	0	0	4622.17	4920.93	4353.27	10.6945	3561.15	1683.84	518.2	5120.4	6830.78	7926.38	6680.43	57.4519	5153.51	2642.94	912.822	8802.85	163.344	352.150	162.009	354.156	338.351	342.886	344.564	339.373	8192	-8191	8192	8192	254	
77129.461	1	1	0	0	4711.55	4895.62	4432.65	0.96671	3521.05	1655.75	520.856	5037.34	6874.44	7911.23	6695.56	54.7837	5119.02	2627.11	918.957	8802.75	163.121	352.216	162.543	54.642	337.908	343.578	344.357	338.425	8192	-8191	8192	8192	254	
77129.508	1	1	0	0	4657.07	4884.51	4351.23	5.38437	3549.96	1651.9	525.952	5057.45	6863.16	7865.39	6627.24	53.1154	5103.2	2613.25	921.428	8806.11	163.196	351.998	162.697	3.146	338.056	342.062	342.210	339.019	8192	-8191	8192	8192	254	
77129.562	1	1	0	0	4698.39	4902.23	4339.35	4.71443	3547.76	1634.14	527.714	5102.79	6874.8	7900.85	6646.2	57.7692	5122.04	2628.67	908.236	8815.18	163.597	352.284	162.294	337.876	338.144	342.446	346.135	338.677	8192	-8191	8192	8192	254	
77129.633	1	1	0	0	4628.49	4900.93	4454.6	6.82347	3518.93	1695.19	509.97	5061.13	6830.73	7909.75	6741.56	53.6779	5113.19	2623.57	909.918	8775.87	163.502	351.570	161.831	15.906	338.690	342.558	348.326	339.214	8192	-8191	8192	8192	254	
77129.680	1	1	0	0	4627.11	4830.29	4422.33	6.07193	3598.95	1669.89	498.482	5109.24	6851.39	7866.79	6711.78	54.2548	5140.92	2644.45	909.731	8779.19	163.086	351.620	162.467	336.588	339.254	341.885	347.328	338.111	8192	-8191	8192	8192	254	
77129.727	1	1	0	0	4585.83	4922.97	4384.51	7.70345	3498.24	1686.96	527.483	5011.53	6829.64	7923.04	6667.9	61.0865	5100.22	2663.52	926.082	8781.94	163.896	352.162	161.977	331.632	338.264	343.114	344.092	339.740	8192	-8191	8192	8192	254	
77129.773	1	1	0	0	4634.89	4875.65	4331.7	5.09717	3523.82	1612.03	515.049	5080.32	6867.33	7939.51	6633.3	91.8077	5132.44	2649.46	963.471	8870.87	163.398	352.053	161.571	285.755	338.573	343.669	347.060	338.557	8192	-8191	8192	8192	254	
77129.773	1	1	0	0	4618.25	4878.1	4446.86	4.87516	3546.59	1639.33	499.575	5050.13	6856.1	7944.01	6743.02	93.0048	5150.8	2627.1	944.144	8805.62	163.118	351.025	161.888	207.822	338.590	342.804	347.438	338.747	8192	-8191	8192	8192	254	
77129.820	1	1	0	0	4647.74	4845.75	4432.86	13.5489	3566.04	1685.22	524.771	5030.99	6868.59	7937.5	6722.5	105.019	5182.69	2706.75	965.947	8828.93	163.794	352.161	162.206	61.672	338.401	341.686	346.478	339.387	8192	-8191	8192	8192	254	
77129.867	1	1	0	0	4638.14	4985.25	4372.93	8.96364	3535.88	1632.27	534.408	5140.15	6920.38	7990.26	6740.5	117.913	5148.48	2693.48	1000.94	8924.53	164.166	351.636	162.470	321.795	339.038	343.777	346.973	338.084	8192	-8191	8192	8192	254	
77129.922	1	1	0	0	4562.69	4922.27	4378.39	6.84405	3517.71	1670.66	509.34	5186.48	6897.58	7991.64	6706.65	134.529	5146.44	2725.93	988.601	8916.31	164.073	351.596	163.100	304.087	338.705	341.284	344.857	338.762	8192	-8191	8192	8192	254	
77129.992	1	1	0	0	4628.08	4849.12	4288.69	11.5895	3554.07	1679.73	511.663	5105.96	6902.62	7932.13	6721.56	128.49	5222.84	2700.33	993.764	8938.11	164.316	351.491	162.590	45.989	338.127	341.557	344.194	338.346	8192	-8191	8192	8192	254	
77130.039	1	1	0	0	4669.74	4932.59	4358.52	3.96455	3573.5	1675.44	466.394	5104.96	6965.03	7993.42	6703.18	125.558	5199.33	2693.85	945.817	8877.62	164.093	351.655	162.681	303.771	338.607	341.816	348.701	339.484	8192	-8191	8192	8192	254	
77130.086	1	1	0	0	4663.07	4947.89	4336.32	0.530354	3553.12	1648.36	519.209	5165.54	6931.07	8007.7	6690	112.587	5197.75	2670.14	962.779	8919.13	163.253	351.684	162.432	99.088	338.402	342.539	342.861	338.892	8192	-8191	8192	8192	254	
77130.133	1	1	0	0	4645.64	4912.09	4408.57	7.70756	3506.1	1696.67	535.275	5128.83	6890.3	7989.02	6749.22	113.99	5163	2717.24	973.923	8894.33	163.903	350.624	162.834	104.013	339.064	341.949	345.642	338.739	8192	-8191	8192	8192	254	
77130.180	1	1	0	0	4655.51	4835.57	4433.39	5.02585	3529.6	1594.5	519.064	5099.54	6932.81	7941	6751.2	123.538	5150.81	2644.84	981.159	8856.63	163.467	352.106	161.744	328.922	338.597	342.186	348.018	339.191	8192	-8191	8192	8192	254	
77130.234	1	1	0	0	4656.38	4879.24	4375.35	6.18031	3471.22	1659.96	500.242	5142.39	6969.36	7976.56	6724.85	131.514	5150.57	2690.8	982.38	8911.34	163.506	352.032	161.781	348.072	339.098	341.934	344.113	338.700	8192	-8191	8192	8192	254	
77130.305	1	1	0	0	4645.61	4897.69	4409.11	16.3387	3481.92	1684.12	496.748	5090.72	6947.57	7996.15	6746.86	146.495	5186.61	2734.83	1002.88	8858.76	163.538	351.859	162.768	25.523	338.244	341.912	344.632	339.171	8192	-8191	8192	8192	254	
77130.352	1	1	0	0	4637.85	4930.52	4354.32	6.61765	3502.18	1666.82	521.337	5148.87	6916.02	8029.91	6738.62	159.865	5222.91	2725.73	1017.49	8992.79	164.037	352.307	162.254	278.057	339.304	343.069	344.695	338.389	8192	-8191	8192	8192	254	
77130.398	1	1	0	0	4712.82	4922.84	4425.61	11.0714	3525.81	1683.86	537.394	5032	6937.86	8027.75	6804.62	176.058	5220.56	2771.6	1046.89	8887.27	163.908	351.045	162.469	312.742	338.384	342.150	344.371	339.664	8192	-8191	8192	8192	254	
77130.445	1	1	0	0	4649.73	4967.81	4384.34	14.5239	3522.33	1662.44	527.684	5128.42	6926.05	8071.11	6763.81	175.986	5217.84	2744.16	1045.34	8937.57	163.066	352.038	162.035	283.627	339.053	341.903	344.262	339.850	8192	-8191	8192	8192	254	
77130.492	1	1	0	0	4661.87	4928.07	4376.75	4.09957	3532.54	1669.6	542.01	5090.95	6977.36	8044	6784.43	182.317	5233.9	2739.38	1061.2	8903.18	164.569	352.235	162.544	324.047	339.323	342.554	342.843	339.277	8192	-8191	8192	8192	254	
77130.547	1	1	0	0	4669.44	4816.36	4409.8	6.98841	3451.56	1604.84	499.316	4905.67	6985.5	8062.09	6760.86	175.014	5113.29	2671.21	998.76	8685.99	163.576	351.571	161.669	301.758	338.976	342.534	345.173	339.857	8192	-8191	8192	8192	254	
77130.539	1	1	0	0	4556.66	4728.69	4285.73	6.01039	3442.21	1602.74	512.549	4984.96	6820.6	7807.22	6653.2	177.587	5121.7	2681.25	1021.47	8743.09	163.495	351.957	161.894	315.564	339.025	341.665	346.115	339.259	8192	-8191	8192	8192	254	
77130.594	1	1	0	0	4504.11	4700.39	4313.73	6.03353	3529.61	1670.33	515.573	5077.46	6796.98	7865.51	6669.5	187.438	5210.15	2761.45	1034.1	8954.1	164.256	352.115	161.646	227.146	338.760	342.395	344.940	338.688	8192	-8191	8192	8192	254	
77130.664	1	1	0	0	4643.89	4898.5	4548.25	7.3828	3618.27	1668.44	550.131	5252.42	6986.13	8045.73	6986.5	194.923	5362.47	2813.7	1072.9	9235.7	163.034	351.797	162.414	289.590	339.001	342.102	345.604	339.215	8192	-8191	8192	8192	254	
77130.711	1	1	0	0	4711.58	5076.74	4540.76	13.7644	3619.68	1713.15	552.704	5351.57	7151.81	8322.79	7034.32	202.5	5379.29	2853.69	1110.22	9414.56	162.541	351.207	162.038	334.473	338.616	341.324	343.411	339.169	8192	-8191	8192	8192	254	
77130.758	1	1	0	0	4970.04	5140.23	4465.72	9.8961	2768.32	885.031	132.613	429.761	7399.29	8410.31	6902.94	198.678	4146.62	1505.23	369.803	846.361	163.417	351.094	161.778	36.800	337.699	343.546	341.443	333.969	8192	-8191	8192	8192	254	
77130.805	1	1	0	0	63.3277	12.3564	12.4774	7.58861	18.3161	19.2716	34.0568	53.5653	220.51	156.75	147.909	151.49	203.466	681.976	1594.64	3324.45	158.805	323.012	145.824	8.618	54.507	309.990	205.028	199.712	8192	-8191	8192	8192	254	
77130.852	1	1	0	0	48.2409	46.6486	97.2336	18.3398	51.0051	116.231	80.8234	48.85	5357.66	8176	6946.35	7074.82	7644.62	7696.1	7982.77	8333.21	48.743	292.418	263.176	196.783	237.187	232.365	161.798	194.794	8192	-8191	8192	8192	254	
77130.906	1	1	0	0	37.4032	16.6572	168.078	52.2541	64.8657	55.8596	46.1097	53.4101	8590.22	8955.19	9761.46	10769	11399.7	10878.3	10170.9	10542	158.167	308.209	59.271	349.467	310.673	281.725	284.015	209.984	8192	-8191	8192	8192	254	
77130.953	1	1	0	0	22.2391	38.1728	17.7458	90.7873	93.0666	74.7341	96.7111	90.3207	10247.1	10405.9	10712.4	12262.2	13150.3	15774.6	15576.6	13212.3	236.084	50.751	354.783	3.435	166.284	12.551	34.929	279.936	8192	-8191	8192	8192	254	
77131.000	1	1	0	0	71.2389	55.0637	55.3469	81.2094	59.9234	98.4392	49.6727	37.8914	13172.7	14136.5	16284.9	13248	12627.9	12265	12216.5	12378.9	153.676	109.976	295.607	260.231	137.163	15.753	329.615	286.394	8192	-8191	8192	8192	254	
77131.047	1	1	0	0	51.0766	46.7311	85.3401	41.9191	67.8716	88.658	50.8726	35.4807	12402.4	12247.4	12074.7	11996.9	12069.1	12341.5	12397.9	12441.2	306.300	194.671	341.619	291.069	69.515	129.838	201.329	319.572	8192	-8191	8192	8192	254	
77131.094	1	1	0	0	28.5873	71.8035	5.14554	8.40495	114.897	124.29	39.847	59.1397	12737.7	13646.2	15789.9	17961.6	17207.2	14973.8	15483	16967.5	173.389	8.233	205.885	220.543	225.684	146.159	210.562	144.290	8192	-8191	8192	8192	254	
77131.164	1	1	0	0	47.7095	49.0457	36.9739	103.444	22.1938	32.5928	149.858	25.7405	16478.5	16898.2	17568.8	16907.1	16580.7	17259.3	17477.7	17698.1	143.760	212.069	195.111	52.915	320.406	47.711	185.048	288.589	8192	-8191	8192	8192	254	
77131.211	1	1	0	0	74.9126	110.707	35.9824	100.11	64.1132	110.35	20.2486	81.4821	18316	18218.3	18177.6	19775.5	20063.2	13930.2	9173.82	9846.17	210.608	261.168	130.996	116.705	109.583	319.457	237.869	57.759	8192	-8191	8192	8192	254	
77131.266	1	1	0	0	58.3547	59.8377	39.6807	85.786	52.753	33.7415	73.8305	88.4837	11601.3	14637.3	15844.7	14380.3	11701.9	8707.84	7673.65	9165.69	196.490	20.404	342.937	12.540	30.957	316.163	310.362	145.357	8192	-8191	8192	8192	254	
77131.312	1	1	0	0	49.1671	82.2314	40.3423	83.1717	46.4794	6.60942	45.6306	38.7524	9309.62	10811.5	12177.3	7375.1	4468.07	4779.62	4980.13	4353.36	76.632	87.360	45.066	32.946	104.897	128.063	332.622	86.260	8192	-8191	8192	8192	254	
77131.312	1	1	0	0	24.8898	28.7954	12.206	24.1059	6.78898	7.64033	4.518	21.2868	2795.85	1783.69	1149.04	807.471	593.875	496.163	435.183	389.125	246.084	222.708	270.281	93.153	3.458	172.631	60.484	143.030	8192	-8191	8192	8192	254	
77131.359	1	1	0	0	22.6827	7.59687	4.14905	5.32254	11.1901	7.57336	10.2368	12.4232	352.077	308.365	271.404	243.183	219.216	211.75	222.25	219.058	111.897	192.080	249.139	265.530	68.092	155.975	356.705	289.572	8192	-8191	8192	8192	254	
77131.406	1	1	0	0	4.46832	10.9367	4.24616	8.0751	6.40049	13.2803	6.62125	4.57626	210.745	216.135	218.058	210.014	229.851	222.438	223.433	214.048	10.505	81.680	88.640	230.593	160.025	101.853	97.588	326.293	8192	-8191	8192	8192	254	
77131.453	1	1	0	0	14.0022	4.19741	6.96377	1.20689	8.35836	12.1164	6.18148	11.9478	222.707	223.769	228.803	235.337	232.082	230.976	231.543	223.731	42.842	191.902	271.074	101.961	287.281	0.966	228.300	257.499	8192	-8191	8192	8192	254	
77131.523	1	1	0	0	10.9743	19.81	3.3534	4.19446	5.50514	16.8516	2.40009	5.36787	227.125	225.928	207.942	206.562	205.471	204.284	184.327	196.212	182.744	54.755	247.207	277.577	255.593	29.619	33.436	140.137	8192	-8191	8192	8192	254	
77131.570	1	1	0	0	8.26998	7.01546	8.067	3.36973	5.36156	8.74845	13.4451	11.2361	196.25	173.649	178.356	170.611	163.731	161.188	157.889	152.957	2.171	268.196	43.953	89.715	285.646	357.714	359.529	273.148	8192	-8191	8192	8192	254	
77131.625	1	1	0	0	5.09437	4.06882	3.93547	4.48195	10.1899	14.3346	6.39754	12.0841	159.014	144.909	148.938	152.817	147.889	156.231	158.817	162.712	161.320	311.416	115.370	71.570	26.507	236.044	140.143	242.049	8192	-8191	8192	8192	254	
77131.672	1	1	0	0	10.3398	11.4454	48.2246	8.94763	195.224	173.785	103.875	1182.66	165.904	172.212	220.447	169.543	454.385	502.865	435.438	2388.88	79.618	350.372	178.744	30.537	343.205	353.687	342.805	343.669	8192	-8191	8192	8192	254	
77131.719	1	1	0	0	1073.13	1079.04	984.835	6.77837	861.892	412.681	139.393	1283.26	1879.49	2103.63	1806.24	299.231	1532.99	968.096	534.769	2519.78	171.572	358.393	168.343	354.609	344.786	346.108	349.709	344.593	8192	-8191	8192	8192	254	
77131.766	1	1	0	0	1142.95	1092.73	1002.87	10.4565	819.148	407.571	132.143	1244.02	1932.91	2114.23	1874.98	328.788	1551.48	992.553	552.909	2523.97	169.411	357.036	167.820	331.533	344.481	345.935	348.922	343.930	8192	-8191	8192	8192	254	
77131.812	1	1	0	0	1099.18	1111.82	1043.67	7.69043	905.659	439.618	130.052	1314.23	1945.01	2163.33	1917.72	331.692	1615.42	1000.72	572.221	2625.38	169.521	356.875	168.337	104.621	343.722	349.652	348.417	344.800	8192	-8191	8192	8192	254	
77131.859	1	1	0	0	1128.26	1204.87	1071.75	5.63782	874.265	429.463	133.756	1353.97	2036.93	2252.38	1960.86	358.226	1644.99	1030.54	574.149	2667.12	168.480	359.449	169.673	141.337	342.587	347.892	354.597	343.423	8192	-8191	8192	8192	254	
77131.938	1	1	0	0	1156.12	1213.07	1069.02	17.1578	923.869	443.507	141.119	1322.99	2023.32	2270.76	1967.72	339.077	1635.69	992.298	541.596	2636.32	168.111	357.939	168.308	318.340	344.806	345.921	353.782	343.737	8192	-8191	8192	8192	254	
77131.984	1	1	0	0	1143.89	1180.46	1065.5	6.34994	890.778	460.456	145.214	1317.05	1976.69	2195.08	1879.35	268.567	1567.89	940.803	480.837	2537.9	170.420	0.531	167.021	199.367	345.220	347.141	349.318	344.414	8192	-8191	8192	8192	254	
77132.031	1	1	0	0	1134.71	1204.7	1078.3	8.97255	924.161	465.424	132.183	1304.54	1922.36	2157.35	1871.89	213	1500.39	893.99	432.269	2461.15	169.917	355.831	168.083	355.832	343.427	346.083	354.637	343.370	8192	-8191	8192	8192	254	
77132.078	1	1	0	0	1108.99	1109.16	1015.37	7.4317	859.359	392.484	139.031	1183.88	1817.56	1996.76	1709.24	174.577	1374.53	802.288	394.543	2258.78	171.032	357.833	169.310	8.819	343.876	347.572	346.157	344.727	8192	-8191	8192	8192	254	
77132.078	1	1	0	0	1005.41	1013.62	957.402	11.9513	794.375	378.147	129.435	1173.02	1636.29	1821.05	1577.66	155.562	1284.56	733.76	345.322	2186.5	170.447	357.203	168.807	106.109	342.910	346.480	349.692	344.016	8192	-8191	8192	8192	254	
77132.125	1	1	0	0	998.589	999.476	947.714	12.5812	794.849	363.724	117.875	1143.74	1585.77	1754.93	1523.12	119.976	1241.86	714.13	320.264	2123.62	169.959	356.389	167.852	35.041	344.995	344.389	349.232	343.081	8192	-8191	8192	8192	254	
77132.172	1	1	0	0	946.542	1005.86	912.245	11.6363	768.284	385.096	131.096	1164.66	1532.05	1724.64	1523.53	107.654	1228.38	721.192	312.856	2126.86	171.567	358.078	166.938	80.956	344.355	344.489	347.584	343.890	8192	-8191	8192	8192	254	
77132.219	1	1	0	0	971.51	1023.84	903.046	14.3294	768.831	381.534	125.07	1183.2	1540.42	1768.02	1497.94	108.409	1229.78	690.726	308.726	2122.38	169.124	359.264	168.454	5.397	342.513	345.687	350.388	343.669	8192	-8191	8192	8192	254	
77132.297	1	1	0	0	964.601	1037.21	907.714	7.59146	775.142	390.812	133.005	1156.3	1515.43	1743.75	1494.33	106.389	1233.36	704.837	303.279	2106.93	168.763	356.179	167.597	91.984	344.226	345.110	352.575	344.556	8192	-8191	8192	8192	254	
77132.344	1	1	0	0	971.222	1050.12	911.923	2.54812	769.988	394.796	111.868	1148.72	1536.25	1740.19	1497.82	110.913	1227.12	704.082	306.226	2107.1	170.772	356.746	168.123	335.268	342.649	345.216	350.351	343.977	8192	-8191	8192	8192	254	
77132.391	1	1	0	0	1002.74	1025.62	901.039	9.15767	786.137	368.625	130.898	1171.69	1555.34	1739.85	1487.52	100.726	1219.01	675.74	302.495	2152.76	170.480	357.259	169.423	6.582	347.820	346.941	349.324	344.229	8192	-8191	8192	8192	254	
77132.438	1	1	0	0	1014.67	1032.15	930.594	9.18249	791.407	405.023	116.606	1140.25	1548.87	1742.81	1506.29	112.938	1232.35	713.683	316.572	2093.2	170.181	356.725	168.306	346.159	343.849	345.640	353.047	344.516	8192	-8191	8192	8192	254	
77132.484	1	1	0	0	984.356	1029.57	908.114	8.01171	783.003	396.056	116.595	1206.79	1530.84	1719.88	1498.84	110.168	1223.4	713.644	306.534	2126.25	170.510	358.231	168.157	66.546	343.736	350.286	357.752	344.663	8192	-8191	8192	8192	254	
77132.531	1	1	0	0	978.158	995.495	899.561	4.1009	779.986	382.595	123.116	1187.65	1532.35	1695.87	1492.64	99.5433	1226.15	696.284	292.904	2098.83	170.106	356.624	167.220	295.690	344.346	348.247	347.877	342.962	8192	-8191	8192	8192	254	
77132.586	1	1	0	0	984.107	984.446	910.19	10.5664	786.936	370.66	133.414	1167.7	1531.57	1725.88	1483.02	97.6587	1209.65	687.678	296.188	2087.94	168.666	357.707	168.299	9.066	345.547	348.913	352.762	346.075	8192	-8191	8192	8192	254	
77132.633	1	1	0	0	967.713	1022.39	954.259	8.03378	787.026	380.765	112.47	1146.74	1543.58	1713.75	1494.86	95.5769	1225.33	681.755	298.202	2081.42	168.637	356.667	168.438	183.041	344.101	346.547	354.075	342.539	8192	-8191	8192	8192	254	
77132.703	1	1	0	0	999.643	1034.79	896.737	8.67872	783.331	389.53	109.603	1198.63	1522.78	1719.17	1466.23	102.558	1214.69	691.029	297.587	2121.72	169.743	356.682	166.631	35.816	345.216	347.128	345.155	344.908	8192	-8191	8192	8192	254	
77132.750	1	1	0	0	984.432	995.192	889.907	3.19687	789.01	395.645	127.876	1139.36	1528.15	1696.36	1455.98	96.8413	1209.25	707.947	289.678	2086.1	170.259	359.392	168.597	226.389	344.443	347.476	354.164	343.554	8192	-8191	8192	8192	254	
77132.797	1	1	0	0	979.751	1035.8	879.356	7.54602	793.442	370.911	116.972	1160.79	1537.69	1722.79	1452.38	101.279	1227.87	693.01	303.702	2070.66	169.618	357.413	167.560	206.980	343.502	347.293	350.096	344.266	8192	-8191	8192	8192	254	
77132.844	1	1	0	0	941.746	1001.98	900.431	7.24302	801.329	383.795	116.4	1191.2	1519.76	1705.34	1467.59	101.505	1225.68	689.918	296.755	2124.99	169.196	357.290	169.241	207.799	345.073	348.031	352.726	345.103	8192	-8191	8192	8192	254	
77132.844	1	1	0	0	971.175	1009.75	941.232	2.90976	790.943	362.184	128.036	1127.69	1515.66	1723.66	1500.08	109.808	1228.22	681.284	311.159	2087.95	169.488	358.600	167.460	204.655	343.427	347.483	353.911	344.576	8192	-8191	8192	8192	254	
77132.898	1	1	0	0	984.815	993.474	905.861	3.12435	770.131	365.082	110.378	1147.35	1520.28	1708.98	1470.36	100.438	1208.68	687.712	308.976	2087.49	171.321	358.455	169.332	205.156	345.135	347.105	352.010	341.882	8192	-8191	8192	8192	254	
77132.945	1	1	0	0	938.272	1001.01	889.948	5.29346	762.743	384.849	137.028	1172.25	1504.64	1716.22	1432.87	99.5	1208.34	679.264	318.188	2087.06	169.703	358.951	167.006	318.258	345.255	346.658	352.770	343.593	8192	-8191	8192	8192	254	
77132.992	1	1	0	0	981.3	1001.42	886.472	6.35957	758.969	375.169	107.175	1177.03	1535.16	1700.74	1473.69	102.962	1193.85	677.183	288.159	2075.77	169.524	356.989	169.481	268.140	344.273	348.651	356.420	345.099	8192	-8191	8192	8192	254	
77133.062	1	1	0	0	931.083	1002.25	889.97	6.54061	778.87	383.768	127.623	1156.43	1487.18	1712.8	1470.25	102.337	1204.71	692.793	291.63	2082.08	169.151	359.761	168.265	211.977	343.098	350.518	347.502	344.952	8192	-8191	8192	8192	254	
77133.109	1	1	0	0	964.59	1009.65	937.581	6.16384	782.934	372.312	119.652	1152.89	1503.86	1706.97	1485.37	100.293	1200.86	680.298	305.096	2089.14	170.916	358.669	168.584	276.031	343.498	349.283	351.672	344.533	8192	-8191	8192	8192	254	
77133.156	1	1	0	0	968.288	979.235	936.191	4.83781	799.262	385.715	120.168	1148.7	1526.74	1698.68	1494.12	97.8413	1207.33	696.668	303.197	2064.44	169.100	358.412	168.491	9.779	343.571	350.189	352.041	345.138	8192	-8191	8192	8192	254	
77133.203	1	1	0	0	948.848	992.978	910.951	1.75038	748.203	374.015	131.782	1165.08	1495.5	1693.22	1465.95	99.8077	1180.35	687.591	308.918	2091.95	170.374	357.959	169.320	273.814	343.876	346.812	350.458	343.130	8192	-8191	8192	8192	254	
77133.258	1	1	0	0	1016.12	1023.51	912.843	6.92727	765.871	391.352	116.893	1152.1	1540.08	1717.52	1475.75	98.1587	1203.31	694.038	298.043	2068.89	168.661	355.800	169.090	324.790	342.280	347.201	356.501	346.504	8192	-8191	8192	8192	254	
77133.305	1	1	0	0	952.268	1011.7	914.134	4.30095	798.032	388.33	116.926	1167.18	1514.04	1704.38	1471.79	102.639	1221.71	696.678	302.024	2085.91	169.957	356.852	168.378	209.922	346.179	349.297	351.362	344.355	8192	-8191	8192	8192	254	
77133.352	1	1	0	0	955.759	1040.78	909.205	9.84317	797.642	409.392	123.327	1152.49	1501.52	1702.47	1463.12	102.317	1214.31	699.702	302.202	2089.82	169.029	358.394	169.839	89.076	344.049	347.787	352.080	345.886	8192	-8191	8192	8192	254	
77133.398	1	1	0	0	970.672	993.588	913.003	2.04644	762.878	372.258	111.548	1127.43	1519.84	1688.29	1479.17	100.683	1193.72	680.394	303.399	2060	168.971	359.059	168.976	240.773	344.553	348.765	356.243	342.600	8192	-8191	8192	8192	254	
77133.469	1	1	3	0	973.82	976.374	941.614	1.69069	763.846	362.642	92.1464	1140.35	1526.88	1706.43	1483.8	102.529	1206.8	674.519	289.668	2078.39	168.482	357.489	167.464	300.956	345.449	349.624	353.593	344.548	8192	-8191	8192	8192	254	
77133.516	1	1	0	0	970.64	999.009	909.902	5.89617	778.15	375.364	106.065	1150.24	1513.23	1683.18	1461.32	93.3125	1211.67	676.452	289.519	2078.41	170.536	358.356	167.899	263.906	343.399	349.142	346.027	344.094	8192	-8191	8192	8192	254	
77133.570	1	1	0	0	986.519	1013	881.969	6.79906	795.327	384.699	124.797	1139.66	1520.41	1699.2	1464.94	100.663	1217.03	689.995	296.894	2089.91	169.338	355.947	168.114	50.540	345.611	347.045	348.459	346.007	8192	-8191	8192	8192	254	
77133.617	1	1	0	0	974.332	1003.22	889.053	6.21449	770.537	369.18	112.974	1163.73	1518.79	1691.18	1453.07	93.5337	1188.98	676.346	295.447	2064.36	168.730	358.657	168.347	177.374	343.755	349.859	349.932	345.306	8192	-8191	8192	8192	254	
77133.617	1	1	0	0	944.317	1005.47	901.538	9.08665	747.89	386.389	117.633	1170.05	1502.41	1692.74	1482.91	92.6346	1168.37	679.409	289.966	2059.71	168.242	358.315	167.175	327.167	343.215	347.202	352.728	345.573	8192	-8191	8192	8192	254	
77133.664	1	1	0	0	964.11	970.029	958.552	6.85656	791.644	390.519	112.772	1157.83	1498.37	1675.59	1504.96	99.8173	1198.2	676.913	285.115	2065.31	169.281	358.230	168.364	144.767	343.966	346.366	347.279	342.203	8192	-8191	8192	8192	254	
77133.711	1	1	0	0	946.091	975.063	899.069	5.00125	762.703	351.54	119.034	1171.66	1502.94	1670.69	1464.68	90.9856	1197.62	657.087	287.899	2065.21	168.638	356.603	167.513	31.614	345.980	346.623	350.664	345.568	8192	-8191	8192	8192	254	
77133.758	1	1	0	0	981.679	968.9	918.156	5.30767	781.17	369.286	125.91	1155.62	1505.28	1688.31	1462.66	90.875	1202.36	666.601	292.812	2089.2	169.657	355.256	167.643	268.083	344.373	349.095	354.396	343.019	8192	-8191	8192	8192	254	
77133.828	1	1	0	0	977.787	1015.89	903.485	4.19609	784.016	377.276	125.399	1161.29	1516.04	1701.83	1447.57	87.5673	1193.86	671.082	282.144	2066.05	170.490	357.601	166.595	35.870	344.908	346.758	351.761	343.100	8192	-8191	8192	8192	254	
77133.883	1	1	0	0	950.804	1018.41	935.201	7.05454	750.563	372.736	121.84	1109.74	1503.41	1676.66	1459.81	74.6827	1169.67	638.63	259.817	2021.92	169.713	358.121	168.409	318.719	344.312	346.856	345.970	343.755	8192	-8191	8192	8192	254	
77133.930	1	1	0	0	947.36	995.148	894.79	5.75097	740.201	374.306	121.189	1161.63	1457.08	1644.39	1412.53	55.8173	1138.58	624.947	244.394	2052.29	169.290	357.239	168.442	276.602	343.104	348.872	350.609	345.324	8192	-8191	8192	8192	254	
77133.977	1	1	0	0	953.18	995.735	902.684	2.47672	764.493	377.937	133.762	1134.07	1449.4	1636.66	1411.79	49.6923	1140.07	633.322	249.957	2019.93	172.130	358.320	167.940	30.141	344.399	347.919	351.274	345.463	8192	-8191	8192	8192	254	
77134.023	1	1	0	0	991.318	1016.73	891.066	2.91343	740.689	376.913	125.225	1129.2	1478.18	1640.46	1407.54	49.0721	1147.73	629.481	244.755	2023.57	170.485	357.027	169.305	1.659	343.378	346.802	351.656	344.461	8192	-8191	8192	8192	254	
77134.070	1	1	0	0	950.915	985.974	924.493	4.50091	745.162	391.237	97.5389	1168.63	1449.31	1657.54	1420.38	47.0817	1157.83	638.995	237.269	2047.65	168.919	358.662	168.194	242.019	343.974	348.717	348.440	345.713	8192	-8191	8192	8192	254	
77134.117	1	1	0	0	967.566	979.551	922.148	4.32138	785.125	365.484	112.402	1133.92	1465.72	1625.76	1421.76	57.4135	1175.26	635.962	260.558	2046.5	170.216	359.113	168.091	108.632	342.798	346.667	347.914	346.035	8192	-8191	8192	8192	254	
77134.164	1	1	0	0	979.633	989.355	925.306	7.89291	761.476	406.628	122.674	1159.63	1501.25	1679.75	1459.07	87.7452	1179.83	687.769	294.413	2069.87	168.684	356.756	168.461	93.362	345.657	346.175	354.737	343.699	8192	-8191	8192	8192	254	
77134.242	1	1	0	0	991.543	994.95	913.569	7.53345	765.229	392.881	116.804	1175.69	1521.47	1697.93	1454.58	88.9135	1192.89	683.058	284.245	2109.5	168.572	357.874	168.217	92.945	342.953	349.134	353.977	344.558	8192	-8191	8192	8192	254	
77134.289	1	1	0	0	976.974	994.195	915.913	4.18652	774.537	402.379	121.934	1136.59	1506.38	1675.11	1457.95	91.0288	1185.39	692.207	279.106	2062.12	169.191	357.432	167.076	322.791	343.698	348.649	346.016	342.687	8192	-8191	8192	8192	254	
77134.336	1	1	0	0	998.075	981.544	919.653	4.54545	773.953	384.698	124.246	1148.98	1519.86	1684.6	1454.33	88.7308	1178.41	672.76	273.798	2068.99	169.214	358.911	167.566	0.331	344.504	349.575	350.266	344.249	8192	-8191	8192	8192	254	
77134.383	1	1	0	0	969.327	993.663	914.361	2.29016	773.505	372.88	124.059	1146.56	1505.13	1684.15	1443.61	79.7067	1191.12	658.221	287.332	2072.46	169.265	358.004	168.478	1.500	344.275	346.965	352.392	343.587	8192	-8191	8192	8192	254	
77134.383	1	1	0	0	988.123	988.975	875.355	5.44499	750.007	381.211	115.467	1119.97	1507.23	1681.3	1437.53	81.2019	1179.79	661.365	277.221	2056.9	168.780	357.516	168.480	335.625	343.528	350.166	352.029	344.491	8192	-8191	8192	8192	254	
77134.430	1	1	0	0	954.517	971.712	904.404	4.77782	772.727	369.641	122.42	1178.61	1488.72	1655.61	1449.69	76.6923	1175.19	668.683	272.606	2058.3	170.127	359.366	167.394	237.692	345.367	345.954	349.763	342.992	8192	-8191	8192	8192	254	
77134.477	1	1	0	0	974.171	1003.92	911.979	6.68304	764.841	369.055	118.969	1103.81	1483.95	1684.66	1440.77	69.9663	1158.73	646.707	251.293	1960.18	169.058	357.954	168.982	57.865	344.553	352.177	354.427	345.065	8192	-8191	8192	8192	254	
77134.523	1	1	0	0	976.936	1001.81	941.351	4.37701	763.669	380.372	109.801	1127.24	1484.79	1640.05	1429.37	52.976	1151.22	638.067	247.861	1970.47	168.527	359.289	168.034	127.311	343.973	347.298	348.495	344.354	8192	-8191	8192	8192	254	
77134.602	1	1	0	0	940.269	980.082	895.651	2.34464	767.311	365.37	128.511	1105.08	1449.75	1644.92	1420.97	52.6442	1174.47	616.688	250.067	1960.39	168.454	358.993	168.631	298.595	343.762	348.381	352.581	343.650	8192	-8191	8192	8192	254	
77134.648	1	1	0	0	957.226	1010.29	902.682	4.37362	780.185	389.889	122.036	1170.4	1458.52	1661.28	1418.46	53.9856	1156.38	631.899	254.726	2024.39	169.659	358.579	168.965	105.488	346.090	346.944	354.694	345.785	8192	-8191	8192	8192	254	
77134.695	1	1	0	0	995.614	1011.3	937.588	3.7181	794.365	376.917	126.686	1117.24	1476.45	1644.36	1440.41	53.0337	1164.98	651.606	244.264	2013.91	169.571	358.298	166.835	306.979	345.015	347.945	352.874	345.371	8192	-8191	8192	8192	254	
77134.742	1	1	0	0	949.92	1000.22	908.926	3.3158	780.749	364.799	121.701	1133.74	1442.56	1657.61	1420.33	50.2019	1156.61	634.077	253.341	2002.51	171.383	358.092	166.525	299.645	341.528	350.117	349.690	344.923	8192	-8191	8192	8192	254	
77134.789	1	1	0	0	947.073	978.36	902.45	3.10494	770.532	382.321	114.914	1137.61	1461.85	1623.39	1411.48	52.0673	1155.64	634.904	250.875	1999.75	169.555	357.829	168.787	328.221	344.746	345.123	346.951	343.697	8192	-8191	8192	8192	254	
77134.836	1	1	0	0	946.592	972.287	863.344	4.00635	737.753	362.337	129.467	1177.12	1453.39	1615.21	1392.71	49.9231	1143.84	625.606	254.582	2035.77	169.212	358.439	168.503	243.751	343.052	349.265	353.508	343.042	8192	-8191	8192	8192	254	
77134.914	1	1	0	0	958.615	990.717	881.998	3.92107	785.991	374.744	125.472	1149.33	1469.15	1640.31	1402.18	53.6779	1159.24	622.865	252.341	2027.27	169.312	357.568	168.035	59.894	343.481	347.368	353.170	344.401	8192	-8191	8192	8192	254	
77134.961	1	1	0	0	993.174	997.345	923.137	4.56314	759.735	364.423	115.412	1207.99	1484.88	1658.54	1455.19	53.7404	1146.62	627.207	251.37	2044.85	170.442	359.291	166.410	82.584	344.923	346.518	357.434	344.627	8192	-8191	8192	8192	254	
77135.008	1	1	0	0	931.224	1029	910.129	5.44074	775.593	374.074	122.509	1103.88	1433.07	1679.84	1409.38	51.6827	1164	622.611	250.01	2016.22	170.166	358.190	168.142	38.234	343.921	347.216	348.422	343.325	8192	-8191	8192	8192	254	
77135.055	1	1	0	0	980.142	1013.31	905.268	6.61608	771.533	386.427	101.919	1123.6	1463.88	1659.65	1421.92	51.6635	1162	643.798	245.404	2040.52	169.375	357.387	168.543	335.695	343.443	348.354	342.010	344.456	8192	-8191	8192	8192	254	
77135.102	1	1	0	0	949.707	1013.94	907.206	2.18298	769.096	385.106	106.714	1192.7	1455.68	1685.85	1419.48	57.476	1149.68	644.567	238.683	2100.82	169.629	357.679	169.856	333.436	345.923	346.180	351.221	342.907	8192	-8191	8192	8192	254	
77135.148	1	1	0	0	989.363	1036.16	927.838	6.9308	768.818	385.869	114.026	1149.3	1477.95	1711.55	1441.2	53.0913	1157.74	629.846	243.409	2018.05	170.723	357.883	167.846	35.154	343.005	349.071	351.844	344.169	8192	-8191	8192	8192	254	
77135.148	1	1	0	0	996.886	1030.75	910.123	5.822	756.309	386.965	116.712	1125.68	1465.67	1707.14	1428.52	52.3558	1161.29	636.365	255.12	1994.81	169.267	358.687	167.042	300.334	344.145	348.729	357.712	343.281	8192	-8191	8192	8192	254	
77135.195	1	1	0	0	1028.37	999.672	907.963	1.1817	772.154	377.725	115.892	1156.01	1511.43	1669.14	1430.21	52.1971	1149.92	643.409	255.644	2025.39	170.289	357.223	168.669	330.183	345.129	346.293	354.890	343.699	8192	-8191	8192	8192	254	
77135.273	1	1	0	0	965.893	953.56	908.762	2.56957	759.448	378.55	109.909	1152	1473.61	1645.42	1433.82	56.1587	1160.24	643.202	251.827	2026.94	169.550	358.485	168.088	236.265	345.637	347.093	345.328	343.079	8192	-8191	8192	8192	254	
77135.320	1	1	0	0	924.015	1015.73	906.917	2.03839	730.754	362.602	106.238	1130.49	1454.36	1674.46	1434.53	53.4567	1152.44	627.62	246.221	2046.66	170.003	357.944	168.358	96.478	345.589	346.654	349.788	343.548	8192	-8191	8192	8192	254	
77135.367	1	1	0	0	971.902	987.74	911.746	8.71953	811.78	390.39	109.791	1165.26	1472.71	1650.66	1406.21	52.3317	1180.17	647.832	254.115	2066.48	170.140	356.850	167.759	259.035	345.038	348.945	349.366	343.874	8192	-8191	8192	8192	254	
77135.414	1	1	0	0	967.079	979.695	907.463	5.68482	751.233	372.807	132.164	1140.74	1465.96	1607.24	1430.62	50.4471	1132.51	644.519	257.466	2017.9	171.443	356.342	165.546	6.293	342.790	347.942	349.185	342.884	8192	-8191	8192	8192	254	
77135.461	1	1	0	0	958.362	1010.94	897.279	10.6665	771.676	397.133	124.717	1208.45	1460.05	1646.43	1406.12	49.726	1155.76	642.587	244.274	2096.46	170.451	357.153	167.895	28.157	343.984	347.499	348.888	345.888	8192	-8191	8192	8192	254	
77135.508	1	1	0	0	970.223	1004.71	885.927	2.42487	752.362	381.414	129.076	1174.91	1493.7	1661.05	1416.52	54.7933	1160.66	633.106	249.466	2078.93	169.436	356.677	167.748	158.753	344.991	351.943	351.346	342.065	8192	-8191	8192	8192	254	
77135.562	1	1	0	0	962.526	1012.61	897.445	5.57181	767.351	369.729	118.929	1192.85	1450.6	1653.75	1410.36	54.4183	1160.2	640.625	240.538	2090.73	169.286	358.538	169.567	79.235	344.592	349.138	353.120	343.536	8192	-8191	8192	8192	254	
77135.609	1	1	0	0	972.038	985.095	932.955	2.72636	762.538	391.782	123.452	1220.69	1486.52	1652.72	1448.13	50.9519	1170.66	629.279	251.639	2108.23	168.744	358.834	168.058	164.171	345.524	346.315	351.602	345.823	8192	-8191	8192	8192	254	
77135.680	1	1	0	0	965.664	1029.07	928.539	3.17395	781.587	380.934	108.418	1175.04	1463.15	1682.3	1407.17	51.7981	1154.83	635.409	243.894	2100.67	169.187	359.524	165.974	58.873	345.305	346.009	349.363	345.349	8192	-8191	8192	8192	254	
77135.727	1	1	0	0	979.941	975.003	921.662	1.84618	775.075	373.307	123.632	1140.35	1456.82	1627.49	1443.37	56.7163	1157.03	634.812	258.625	2017.28	169.478	356.572	169.305	3.613	344.445	348.319	345.801	344.276	8192	-8191	8192	8192	254	
77135.773	1	1	0	0	956.229	981.11	894.208	2.06334	756.899	367.745	124.905	1140.77	1458.29	1637.71	1410.19	52.9519	1150.39	628.928	258.312	2010.28	169.688	357.328	167.860	7.607	344.555	348.431	350.142	342.122	8192	-8191	8192	8192	254	
77135.820	1	1	0	0	962.698	1008.52	885.226	2.99711	804.696	368.109	115.662	1165.28	1453	1650.39	1419.03	51.7115	1181.72	630.26	246.707	2030.68	169.684	0.548	166.811	322.404	343.719	348.560	346.814	345.864	8192	-8191	8192	8192	254	
77135.867	1	1	0	0	963.967	995.548	916.096	4.68662	768.645	363.754	113.436	1133.44	1464.69	1639.9	1408.53	54.1538	1157.78	624.236	247.712	2014.24	170.630	357.951	166.762	35.924	342.998	349.637	346.841	345.363	8192	-8191	8192	8192	254	
77135.922	1	1	0	0	979.997	1019.99	884.688	3.86647	779.175	369.808	122.709	1157.91	1466.56	1661.07	1409.26	53.7788	1163.91	625.067	246.173	2090.05	169.306	358.121	168.291	130.085	344.213	347.804	347.751	344.561	8192	-8191	8192	8192	254	
77135.922	1	1	0	0	986.75	982.531	911.558	5.48699	750.764	395.816	107.92	1183.81	1468.51	1649.91	1426.52	54.6923	1143.45	651.202	238.062	2082.92	168.180	358.465	169.256	140.249	344.057	348.433	350.231	344.967	8192	-8191	8192	8192	254	
77135.969	1	1	0	0	962.943	1008.99	886.391	4.99829	784.794	401.333	121.715	1180.25	1466.52	1655.32	1406.16	48.6827	1168.54	658.168	248.13	2074.6	170.175	357.844	166.334	356.309	344.711	345.474	349.104	345.693	8192	-8191	8192	8192	254	
77136.016	1	1	0	0	983.564	941.298	926.622	3.89903	764.764	394.601	118.492	1152.99	1465.06	1609.79	1419.61	56.3365	1162.26	642.707	243.183	2063.18	169.831	357.939	167.366	107.489	344.282	347.212	348.745	342.712	8192	-8191	8192	8192	254	
77136.062	1	1	0	0	950.853	997.602	924.614	0.992552	795.369	395.055	127.337	1172.95	1446.82	1655.76	1422.55	54.7933	1165.17	645.577	249.375	2053.44	169.367	358.729	168.393	58.311	343.394	347.046	350.799	343.931	8192	-8191	8192	8192	254	
77136.133	1	1	0	0	971.966	999.578	927.202	3.78854	779.055	371.547	130.961	1120.71	1468.98	1659.57	1434.5	54.6875	1189.59	634.481	257.101	1984.01	168.905	358.426	170.409	1.195	344.340	347.273	348.751	345.238	8192	-8191	8192	8192	254	
77136.180	1	1	0	0	976.407	1005.83	864.156	7.83575	785.672	363.935	113.428	1122.73	1467.35	1664.39	1410.64	55.6154	1168.85	636.913	247.447	2005.13	169.402	357.565	169.777	353.446	345.011	348.677	352.652	344.522	8192	-8191	8192	8192	254	
77136.234	1	1	0	0	966.694	978.861	931.96	0.711272	771.467	379.325	106.496	1175.69	1458.41	1640.82	1432.1	50.3317	1151.84	629.841	240.351	2025.17	170.725	355.919	168.963	30.900	343.336	351.269	348.934	344.120	8192	-8191	8192	8192	254	
77136.281	1	1	0	0	970.108	979.405	917.046	4.58557	799.315	372.224	116.736	1154.54	1475.32	1651.27	1425.93	54.101	1165.77	623.899	250.019	2046.63	167.781	356.840	166.934	13.414	343.820	349.421	346.079	342.948	8192	-8191	8192	8192	254	
77136.328	1	1	0	0	984.871	999.383	910.104	2.82368	765.144	364.472	125.047	1154.84	1463.01	1650.78	1423.6	53.2692	1167.46	624.788	253.865	2036.86	170.292	355.572	169.843	344.612	344.003	343.862	346.245	343.952	8192	-8191	8192	8192	254	
77136.375	1	1	0	0	980.361	1037.01	922.888	3.29983	775.44	374.143	103.636	1129.73	1463.16	1681.39	1408.5	50.6442	1158.95	627.274	245.312	2043.65	168.293	357.148	166.238	79.703	343.247	345.633	347.741	342.224	8192	-8191	8192	8192	254	
77136.445	1	1	0	0	987.451	1018.31	920.763	4.48103	772.401	353.026	108.331	1131.86	1465.43	1669.02	1422.46	48.0529	1176.62	613.827	244.236	2035.95	169.178	358.024	168.995	347.242	342.906	345.234	348.225	342.736	8192	-8191	8192	8192	254	
77136.492	1	1	0	0	968.558	966.289	940.7	5.25359	763.268	375.807	111.261	1129.86	1467.66	1626.5	1445.35	50.5337	1146.93	638.082	243.096	2060.54	169.950	356.158	166.362	130.241	344.973	346.451	344.725	343.696	8192	-8191	8192	8192	254	
77136.539	1	1	0	0	982.987	1036.63	926.594	6.30073	768.762	380.013	118.801	1111.39	1475.03	1673.07	1431.51	45.5337	1163.3	627.659	244.356	1997.84	169.677	355.996	167.173	346.445	343.695	347.234	358.658	344.143	8192	-8191	8192	8192	254	
77136.594	1	1	0	0	1000.54	976.553	898.024	5.22334	776.561	360.912	115.578	1129.27	1484.62	1648.21	1409.43	47.8365	1172.17	624.798	246.683	2011.03	169.594	358.281	168.016	335.606	342.909	346.731	346.969	342.966	8192	-8191	8192	8192	254	
77136.641	1	1	0	0	959.347	964.233	899.057	2.79916	779.081	369.889	124.311	1190.7	1465.79	1627.08	1418.23	45.6731	1161.43	620.837	247.087	2046.63	169.746	358.747	169.908	284.510	342.854	348.089	353.949	346.859	8192	-8191	8192	8192	254	
77136.688	1	1	0	0	966.211	1006.44	916.279	0.798968	765.371	385.625	115.563	1177.86	1441.11	1651.21	1418.21	50.9327	1139.49	644.163	246.572	2051.36	170.749	357.599	168.363	59.534	343.839	347.353	346.216	343.078	8192	-8191	8192	8192	254	
77136.688	1	1	0	0	960.16	982.509	895.463	1.80563	763.625	372.211	109.313	1174.77	1452.38	1638.89	1416.62	53.4183	1152.97	641.678	242.683	2045.56	169.874	356.428	168.205	153.590	342.823	348.270	353.543	344.663	8192	-8191	8192	8192	254	
77136.734	1	1	0	0	942.18	1001.73	896.759	2.55791	739.531	365.898	112.472	1140.73	1465.83	1663.5	1414.81	61.1587	1138.36	647.37	254.938	2048.62	168.439	357.602	166.380	212.924	344.118	347.772	359.692	345.199	8192	-8191	8192	8192	254	
77136.805	1	1	0	0	975.007	1028.42	896.491	5.49772	762.316	372.917	106.713	1177.86	1475.73	1685.02	1421.26	67.6971	1169.06	660.01	257.135	2077.11	170.984	358.633	168.573	15.106	346.498	347.410	347.008	345.359	8192	-8191	8192	8192	254	
77136.859	1	1	0	0	965.705	1011.35	904.353	3.17407	750.359	386.936	116.52	1175.35	1475.98	1683.28	1439.61	65.4183	1144.69	642.702	262.356	2074.3	170.048	359.019	169.177	218.514	343.977	349.182	345.133	344.751	8192	-8191	8192	8192	254	
77136.906	1	1	0	0	963.359	1027.06	916.223	4.31959	767.201	369.909	119.947	1143.54	1459.96	1680.11	1430.87	61.4663	1157.9	647.707	254.154	2032.29	168.579	359.393	169.329	54.467	344.494	351.112	354.450	344.596	8192	-8191	8192	8192	254	
77136.953	1	1	0	0	954.684	1029.23	876.92	8.47643	731.505	367.858	116.091	1161.81	1463.7	1671.61	1395.61	62.101	1146.68	647.486	264.529	2054.31	170.508	358.571	170.473	58.319	345.226	347.710	345.280	343.719	8192	-8191	8192	8192	254	
77137.000	1	1	0	0	971.431	972.208	888.658	3.97906	773.233	378.658	125.736	1204.75	1463.32	1641.11	1400.06	68.125	1172.59	639.221	256.077	2061.76	169.796	357.626	167.060	147.691	342.990	347.515	352.192	345.090	8192	-8191	8192	8192	254	
77137.047	1	1	0	0	936.824	969.331	922.671	10.7166	743.301	360.049	113.653	1151.07	1471.78	1638.49	1437.16	63.9904	1164.55	643.005	271.029	2049.24	169.906	359.254	168.926	119.880	344.818	349.390	346.929	343.788	8192	-8191	8192	8192	254	
77137.094	1	1	4	0	940.881	1033.74	865.646	1.05248	773.462	361.79	118.475	1184	1476.26	1692.24	1420.3	82.6442	1194.12	657.938	283.519	2092.49	170.764	358.000	170.013	65.958	343.727	347.642	348.581	344.256	8192	-8191	8192	8192	254	
77137.141	1	1	0	0	954.227	1005.88	883.894	6.34599	787.382	379.851	120.249	1167.4	1493.83	1682.42	1443.21	83.0144	1195.75	660.361	279.37	2086.86	170.521	357.894	167.573	230.585	344.998	350.122	349.515	343.737	8192	-8191	8192	8192	254	
77137.219	1	1	0	0	967.208	990.312	916.961	8.9694	733.387	370.638	112.419	1181.51	1491.24	1691.67	1446.98	72.5337	1170.26	654.721	270.904	2074.43	171.183	358.254	168.313	142.985	344.279	344.435	345.267	344.249	8192	-8191	8192	8192	254	
77137.266	1	1	0	0	962.106	992.387	896.374	2.42176	778.875	387.409	113.93	1168.08	1462.9	1653.44	1426.29	63.2452	1174.12	648.827	250.611	2072.98	170.855	357.737	168.024	169.695	344.745	346.423	354.043	344.018	8192	-8191	8192	8192	254	
77137.312	1	1	0	0	934.895	1019.9	918.704	3.55963	756.394	395.627	124.411	1148.1	1456.65	1680.97	1422.04	53.2212	1151.25	643.394	244.51	2039.94	170.442	357.680	167.345	139.416	345.241	350.387	348.642	345.426	8192	-8191	8192	8192	254	
77137.359	1	1	0	0	984.171	984.237	910.524	6.24638	801.407	377.419	117.18	1153.75	1477.21	1643.1	1419.89	52.9327	1163.23	631.245	246.067	2046.26	170.051	358.662	167.488	345.387	344.496	346.169	355.261	344.617	8192	-8191	8192	8192	254	
77137.406	1	1	0	0	970.699	1016.24	924.837	6.3365	763.709	388.931	124.946	1187.44	1463.57	1654.86	1428.75	51.5962	1155.11	636.101	250.452	2077.75	168.631	358.404	168.642	41.089	345.421	347.742	349.310	344.839	8192	-8191	8192	8192	254	
77137.453	1	1	0	0	947.475	993.704	922.504	6.27149	753.453	369.223	126.473	1214.36	1448.45	1643.08	1425.15	49.1971	1152.75	644.207	251.548	2059.45	169.859	358.395	168.761	263.963	343.786	349.537	350.080	343.729	8192	-8191	8192	8192	254	
77137.453	1	1	0	0	968.463	994.745	917.307	1.93627	761.013	368.434	121.545	1165.77	1467.8	1652.37	1434.62	51.5577	1139.39	625.385	249.361	2039.24	169.289	357.450	167.481	66.114	344.624	346.415	347.949	343.687	8192	-8191	8192	8192	254	
77137.500	1	1	0	0	974.012	986.094	888.986	1.554	787.603	380.585	131.626	1227.27	1478.02	1642.12	1394.12	47.8462	1163.51	632.481	250.274	2080.2	170.767	359.607	167.955	286.059	344.960	347.740	350.180	341.601	8192	-8191	8192	8192	254	
77137.555	1	1	0	0	949.624	992.391	911.743	4.89768	746.811	376.673	117.767	1152.7	1445.56	1624.74	1408.06	52.9808	1141.73	635.899	249.904	2046.19	169.466	358.278	168.668	216.541	345.148	346.076	350.395	344.358	8192	-8191	8192	8192	254	
77137.602	1	1	0	0	941.841	979.684	935.61	9.19426	782.521	376.287	114.547	1155.81	1456.83	1640.32	1439.2	57.9952	1168.37	645.692	265.519	2063.41	167.758	357.314	167.876	338.783	343.638	347.982	351.200	344.900	8192	-8191	8192	8192	254	
77137.672	1	1	0	0	983.127	994.16	879.68	5.68638	770.037	378.502	113.206	1145.72	1482.57	1675.96	1405.89	78.0337	1182.13	659.75	272.553	2092.74	168.806	358.534	167.602	199.594	342.318	349.554	349.066	343.250	8192	-8191	8192	8192	254	
77137.719	1	1	0	0	977.086	1000.56	946.671	4.4351	745.998	368.701	119.621	1180.05	1497.87	1679.57	1461.88	86.8317	1178	663.298	283.12	2109.12	168.657	357.140	166.996	301.738	344.055	346.401	353.937	344.752	8192	-8191	8192	8192	254	
77137.766	1	1	0	0	950.853	997.679	917.721	2.19192	764.454	400.398	115.266	1191.62	1495.2	1704.44	1474.4	115.793	1237.46	724.332	325.014	2139.35	170.167	358.083	167.640	47.803	345.291	345.531	346.542	344.414	8192	-8191	8192	8192	254	
77137.812	1	1	0	0	969.605	1015.54	958.684	3.79364	762.797	355.057	125.275	1154.21	1562.62	1758.22	1554.53	135.466	1231.6	710.173	327.519	2112.11	169.399	356.177	167.730	3.265	343.921	348.282	349.824	345.077	8192	-8191	8192	8192	254	
77137.859	1	1	0	0	949.926	961.9	926.204	2.77776	777.53	374.668	123.666	1142.64	1535.87	1691.55	1491.95	116.178	1223.27	691.433	313.505	2119.41	170.162	358.126	166.357	11.912	343.488	347.408	347.649	343.880	8192	-8191	8192	8192	254	
77137.914	1	1	0	0	996.282	981.77	911.586	6.72286	789.931	360.543	125.304	1174.31	1545.35	1713.61	1494.58	111.034	1227.64	682.668	310.731	2118.9	169.234	359.531	170.019	84.584	345.924	347.005	352.234	343.137	8192	-8191	8192	8192	254	
77137.961	1	1	0	0	951.727	977.169	878.78	3.72732	800.057	372.292	118.746	1154.48	1532.54	1714.13	1445.86	109.909	1208.6	695.505	306.269	2093.75	169.488	357.542	168.258	286.377	343.628	347.096	353.373	342.767	8192	-8191	8192	8192	254	
77138.008	1	1	0	0	951.454	1026.2	914.893	4.0587	775.033	362.118	121.942	1126.87	1510.51	1705.32	1470.81	109.692	1229.57	688.606	310.707	2103.48	168.979	357.526	169.200	27.176	346.332	347.485	344.371	343.030	8192	-8191	8192	8192	254	
77138.078	1	1	0	0	989.199	1003.61	917.041	8.02751	766.964	378.181	134.308	1150.26	1560.02	1740.93	1490.89	117.471	1223.7	710.529	322.005	2109.11	171.630	357.511	168.733	345.179	341.291	349.954	345.310	344.157	8192	-8191	8192	8192	254	
77138.125	1	1	0	0	968.558	975.593	930.612	7.07446	790.903	373.344	118.894	1127.74	1536.08	1698.05	1488.34	133.067	1237.7	723.332	340.346	2123.2	168.817	357.953	168.900	44.084	346.065	346.369	357.095	344.030	8192	-8191	8192	8192	254	
77138.172	1	1	0	0	950.959	986.104	921.883	7.38905	753.452	395.21	98.6831	1169.62	1535.12	1749.64	1537.17	160.957	1253.38	748.875	359.029	2190.12	169.200	358.425	168.360	325.767	342.659	345.128	350.630	345.261	8192	-8191	8192	8192	254	
77138.219	1	1	0	0	975.548	963.223	885.813	13.1597	776.28	376.588	125.531	1177.03	1591.54	1753.37	1529.67	190.312	1307.2	791.481	392.091	2214.66	168.037	358.421	168.194	46.943	344.698	349.579	355.457	343.896	8192	-8191	8192	8192	254	
77138.227	1	1	0	0	933.457	977.255	929.662	9.90239	786.252	371.045	107.364	1170.65	1594.19	1806.47	1589.96	223.63	1332.85	809.601	432.053	2225.94	171.452	357.547	167.606	215.572	345.040	348.134	346.762	343.688	8192	-8191	8192	8192	254	
77138.273	1	1	0	0	969.96	999.941	891.781	15.6833	765.643	380.52	114.364	1151.98	1650.35	1849.08	1602.81	239.188	1348.42	839.909	438.12	2246.14	170.012	354.479	168.243	6.880	342.785	349.262	347.821	342.770	8192	-8191	8192	8192	254	
77138.344	1	1	0	0	958.501	1014.76	891.011	12.1965	748.373	373.645	120.173	1138.27	1618.9	1834.03	1615.88	237.894	1340.84	818.99	450.101	2240.78	168.464	0.551	168.160	192.485	344.809	350.215	354.649	345.553	8192	-8191	8192	8192	254	
77138.391	1	1	0	0	1000.74	983.384	902.668	11.8154	775.515	373.158	125.463	1178.02	1667.15	1830.26	1612.49	247.442	1363.19	827.803	437.543	2272.5	170.579	0.037	167.850	14.496	344.431	344.450	345.835	345.798	8192	-8191	8192	8192	254	
77138.438	1	1	0	0	940.449	1001.96	918.899	9.33001	746.029	388.609	120.19	1188.11	1639.36	1852.07	1608.18	254.389	1353.49	843.865	444.707	2269.03	168.970	357.482	167.566	196.411	343.666	346.564	344.984	343.837	8192	-8191	8192	8192	254	
77138.484	1	1	0	0	937.885	931.776	892.969	8.73188	766.105	382.19	114.267	1158.35	1641.57	1818.33	1631.75	254.736	1345.26	860.351	449.755	2223.05	167.501	357.573	168.081	346.966	342.894	349.913	348.128	343.013	8192	-8191	8192	8192	254	
77138.539	1	1	0	0	972.571	950.74	911.398	14.2873	746.836	383.341	117.187	1183.93	1693.92	1830.22	1622.48	263.216	1356	835.274	458.683	2276.31	168.527	358.377	169.116	97.825	344.789	346.868	344.977	344.449	8192	-8191	8192	8192	254	
77138.586	1	1	0	0	971.973	974.335	918.871	16.3458	714.391	327.297	93.1216	782.416	1669.31	1869.51	1650.07	268.596	1280.13	760.62	385.361	1592.67	169.194	358.123	167.775	87.758	344.145	346.832	345.392	345.699	8192	-8191	8192	8192	254	
77138.633	1	1	0	0	464.85	334.337	259.914	9.75373	79.2552	27.5664	11.5043	9.72878	887.462	713.188	517.678	156.712	254.264	164.082	131.399	151.154	168.417	356.481	171.057	159.349	345.892	349.107	276.631	323.515	8192	-8191	8192	8192	254	
77138.680	1	1	0	0	2.94791	8.25486	4.22632	72.6184	143.805	116.197	46.9216	28.0788	133.519	143.678	186.918	1476.46	11812.1	21941.8	12476.1	14287.7	60.109	357.047	219.931	106.863	113.213	250.574	350.613	331.936	8192	-8191	8192	8192	254	
77138.750	1	1	0	0	114.629	128.379	31.6425	39.4443	57.8159	93.1194	44.3684	30.8073	13864.9	14599.4	16193.8	18197.2	17722.7	17544.7	18236.1	18477.5	282.456	145.631	250.725	39.228	232.311	61.514	156.586	314.452	8192	-8191	8192	8192	254	
77138.797	1	1	0	0	91.431	64.3694	73.6496	94.116	76.3152	62.0721	118.382	39.5147	18810.8	18684.6	19029.9	20611	23297	24012.6	18272.4	13847.7	199.921	219.382	3.074	94.785	357.181	330.980	272.543	206.672	8192	-8191	8192	8192	254	
77138.844	1	1	0	0	47.4771	16.8725	66.3012	80.7288	36.6526	60.6597	74.5594	11.6033	13090.3	13659.2	13586.3	15123.1	14204.3	12766.1	13181.6	12044.9	198.076	55.330	113.555	344.328	93.585	110.856	117.329	164.151	8192	-8191	8192	8192	254	
77138.898	1	1	0	0	33.3506	127.923	79.3877	65.4988	60.2794	38.5314	48.0042	2.98371	12022.1	13515.4	8794.25	3114.17	6815.72	8098.76	8043.88	7977.5	81.400	322.005	268.413	303.726	105.522	333.696	294.887	173.157	8192	-8191	8192	8192	254	
77138.945	1	1	0	0	90.8512	24.5376	12.8434	25.5885	70.2333	31.2858	59.8826	25.1341	7980.78	7774.65	7652.92	7452.46	7224.99	7173.88	7021.07	6988.67	28.641	269.823	67.366	202.351	239.327	218.036	11.839	89.305	8192	-8191	8192	8192	254	
77138.992	1	1	0	0	45.2465	88.1572	35.0153	45.4655	73.0565	23.249	24.3747	84.3251	6958.02	7041.9	7032.5	7032.61	7061.52	7039.2	7036.32	7080.53	193.347	72.926	154.323	356.674	153.598	234.549	178.234	355.543	8192	-8191	8192	8192	254	
77138.992	1	1	0	0	84.4028	28.484	85.7199	28.9789	76.6387	48.962	77.3055	58.5908	7098.96	7083.18	7079.47	7038.29	7010.39	6958.18	6906.15	6834.07	338.658	342.794	269.168	304.181	127.210	259.609	319.992	22.587	8192	-8191	8192	8192	254	
77139.039	1	1	0	0	42.7942	31.5153	23.8671	11.9915	23.3844	12.1918	33.1363	36.523	6866.94	6842.67	6768.4	6758.68	6785.47	6743.91	6663.61	6683.05	118.819	264.191	226.203	258.920	356.100	268.453	50.934	151.010	8192	-8191	8192	8192	254	
77139.109	1	1	0	0	33.9123	57.924	4.76198	76.1211	35.0673	50.1133	39.59	42.8636	6680.55	6630.36	6658.71	6595.08	6558.83	6522.54	6439.47	6406.73	98.543	34.487	254.023	281.360	141.095	263.449	134.824	251.887	8192	-8191	8192	8192	254	
77139.156	1	1	0	0	73.8537	65.6643	69.9408	30.0738	18.8726	66.789	35.176	25.0775	6303.2	6170.69	6091.4	6110.66	5987.24	6002.57	5930.42	5940.77	64.584	225.219	54.070	253.664	111.097	181.141	215.671	40.778	8192	-8191	8192	8192	254	
77139.203	1	1	0	0	47.5656	50.0234	9.97071	20.441	23.1544	39.1324	16.2238	48.5984	5917.61	5895.08	5847.58	5816.25	5796.33	5691.96	5686.25	5613.38	293.206	119.966	268.878	149.912	92.750	238.500	129.097	216.621	8192	-8191	8192	8192	254	
77139.258	1	1	0	0	29.0983	58.4175	19.9868	59.9681	60.0207	48.7479	4.04113	5.79272	5561.24	5515.64	5495.63	5483.14	3579.3	2192.49	1302.16	670.49	122.308	256.198	31.176	78.432	258.884	168.621	251.790	187.846	8192	-8191	8192	8192	254	
77139.305	1	1	0	0	12.0581	14.5985	12.7206	5.98829	12.2024	3.12653	1.88649	10.142	405.644	266.264	206.466	174.303	151.154	140.76	138.851	132.317	355.444	8.045	271.370	19.528	83.800	103.180	276.784	86.675	8192	-8191	8192	8192	254	
77139.352	1	1	0	0	9.34525	8.77402	9.54618	7.02825	5.55098	4.69806	6.71359	6.53205	131.288	135.404	136.154	130.529	128.702	129.442	127.505	125.957	144.875	140.517	320.058	166.503	185.305	107.395	242.328	307.442	8192	-8191	8192	8192	254	
77139.398	1	1	0	0	2.80104	9.11108	6.13656	9.25477	12.9226	8.30373	5.72386	1.05233	136.673	135.365	130.942	122.486	133.37	136.221	129.024	142.12	328.663	332.244	225.099	288.679	308.613	336.135	138.033	237.396	8192	-8191	8192	8192	254	
77139.445	1	1	0	0	11.762	9.029	13.297	4.13963	71.457	38.7714	17.0522	133.73	138.841	149.947	160.99	143.312	249.548	232.779	201.053	421.207	128.824	317.589	160.125	221.005	341.895	344.815	352.577	351.731	8192	-8191	8192	8192	254	
77139.523	1	1	0	0	83.7462	94.5861	105.812	7.52482	134.774	60.4037	34.255	251.428	317.24	320.591	335.529	199.125	364.793	322.697	258.841	660.332	180.342	5.555	164.732	328.057	350.022	357.437	347.163	346.650	8192	-8191	8192	8192	254	
77139.570	1	1	0	0	199.815	232.5	220.004	15.4985	189.939	113.445	31.5847	323.67	537.817	601.736	577.74	258.899	524.014	418.683	309.591	795.288	176.385	10.154	175.190	242.986	350.195	352.409	18.609	347.222	8192	-8191	8192	8192	254	
77139.617	1	1	0	0	225.653	233.133	210.692	11.3985	213.029	97.6912	52.467	313.478	609.346	633.981	589.798	262.63	549.846	424.274	306.188	799.707	176.328	6.576	172.144	302.665	354.057	1.749	347.058	352.273	8192	-8191	8192	8192	254	
77139.664	1	1	0	0	258.58	255.789	215.537	6.29279	212.815	110.801	37.2836	370.849	624.072	663.942	613.668	245.245	573.433	415.5	316.562	832.13	176.367	4.597	173.852	318.717	350.326	352.148	347.775	350.322	8192	-8191	8192	8192	254	
77139.711	1	1	0	0	273.945	270.228	267.015	4.31707	214.054	98.0979	37.3073	344.135	633.327	661.125	626.692	245.144	552.99	414.476	296.764	822.981	174.804	7.091	178.708	180.584	351.045	357.873	343.806	351.893	8192	-8191	8192	8192	254	
77139.758	1	1	0	0	232.232	270.899	255.498	13.1665	213.578	103.094	44.5908	352.249	619.529	679.067	604.216	236.394	541.721	403.885	290.284	821	171.404	7.858	176.491	207.237	353.050	352.567	6.567	348.419	8192	-8191	8192	8192	254	
77139.758	1	1	0	0	260.093	265.389	235.728	8.21699	234.356	112.263	35.4756	370.945	602.534	651.942	585.197	207.404	522.038	382.462	255.625	803.207	176.653	2.128	170.768	277.414	350.147	348.811	10.821	350.129	8192	-8191	8192	8192	254	
77139.805	1	1	0	0	270.794	247.347	239.196	7.40284	212.429	112.611	38.1576	317.495	600.543	626.067	570.077	185.346	501.452	354.548	232.692	729.726	176.305	7.422	173.610	3.438	351.355	359.472	345.263	353.869	8192	-8191	8192	8192	254	
77139.852	1	1	0	0	253.656	266.159	236.415	4.10325	215.562	110.663	24.4411	326.505	549.529	591.913	529.024	161.808	457.548	325.361	211.418	710.207	178.004	1.602	174.025	121.387	350.388	357.725	9.547	352.485	8192	-8191	8192	8192	254	
77139.906	1	1	0	0	230.395	250.995	237.502	4.84552	198.178	99.1781	30.6514	316.469	516.053	552.644	488.192	135.952	410.587	288.457	183.337	658.885	178.500	3.089	176.259	308.515	351.583	0.985	354.169	348.084	8192	-8191	8192	8192	254	
77139.977	1	1	0	0	261.962	239.913	220.699	7.73937	208.627	93.9111	40.7422	298.13	477.245	505.481	448.034	114.351	392.947	260.659	171.288	630.188	175.957	5.732	171.491	178.965	350.221	353.280	1.340	351.379	8192	-8191	8192	8192	254	
77140.023	1	1	0	0	222.119	243.045	207.176	10.0996	182.784	99.3068	35.9273	312.315	452.014	485.524	435.976	102.399	376.49	259.048	160.885	622.399	173.670	2.309	168.480	179.847	346.565	353.701	350.064	350.371	8192	-8191	8192	8192	254	
77140.070	1	1	0	0	231.017	249.861	222.363	9.66651	188.502	96.6893	35.5522	308.539	451.231	488.745	438.51	107.034	370.471	261.37	159.26	636.106	175.363	0.988	176.878	334.021	354.544	354.374	345.621	349.890	8192	-8191	8192	8192	254	
77140.117	1	1	0	0	232.99	225.13	223.785	3.16266	180.507	83.5559	33.6598	320.463	441.337	465.942	432.923	107.548	383.077	248.37	161.452	640.707	174.222	3.515	179.677	5.559	350.974	347.960	343.880	353.180	8192	-8191	8192	8192	254	
77140.172	1	1	0	0	211.947	221.709	206.277	7.50945	188.685	103.126	37.9772	287.45	437.197	474.365	426.322	112.827	389.798	256.591	163.312	619.346	175.635	8.324	175.692	273.904	346.149	350.944	9.021	352.515	8192	-8191	8192	8192	254	
77140.219	1	1	0	0	230.664	239.08	223.846	12.4485	192.436	88.8258	28.8605	319.744	437.106	499.981	437.394	117.894	395.702	253.409	163.875	633.644	175.689	2.711	178.025	55.757	352.013	356.476	350.472	352.220	8192	-8191	8192	8192	254	
77140.266	1	1	0	0	232.782	212.679	210.649	3.57124	181.081	91.1384	36.6528	287.579	457.01	486.216	432.221	116.635	391.221	268.995	174.817	634.755	173.444	1.367	174.340	127.232	347.571	350.320	11.078	348.546	8192	-8191	8192	8192	254	
77140.312	1	1	0	0	228.718	227.632	210.53	2.18879	197.079	104.989	29.6968	302.408	457.341	479.909	436.971	116.404	398.712	275.995	167.572	630.774	174.636	359.773	176.492	308.761	348.892	355.185	4.664	351.716	8192	-8191	8192	8192	254	
77140.383	1	1	0	0	248.239	232.452	226.384	4.83806	194.544	82.2897	23.3497	280.713	461.361	486.173	432.163	112.173	380.986	251.562	156.582	614.192	174.762	4.773	176.888	357.126	351.236	356.853	4.591	347.326	8192	-8191	8192	8192	254	
77140.430	1	1	0	0	245.011	239.648	225.943	3.04987	202.194	99.4882	25.4642	305.126	442.106	479.413	424.837	98.1202	379.611	253.308	146.913	620.428	176.517	6.674	174.716	232.571	347.756	348.551	356.476	350.059	8192	-8191	8192	8192	254	
77140.477	1	1	0	0	240.905	237.132	220.177	6.47166	206.863	91.8262	23.7298	323.481	451.625	490.101	439.462	104.298	383.75	251.851	161.524	631.087	171.053	4.736	175.037	81.926	347.069	349.456	9.499	347.336	8192	-8191	8192	8192	254	
77140.523	1	1	0	0	234.109	217.66	220.157	2.63799	182.763	80.2128	34.8836	299.661	436.625	490.606	438.678	114.692	375.514	253.24	164.058	624.909	178.769	5.232	172.690	152.815	345.796	348.465	349.248	349.017	8192	-8191	8192	8192	254	
77140.531	1	1	0	0	252.097	231.213	223.068	8.15114	195.232	99.4432	23.1992	289.835	450.327	476.707	434.846	93.9567	377.971	246.976	155.966	624.087	175.774	0.319	173.275	37.465	350.635	354.164	355.139	353.187	8192	-8191	8192	8192	254	
77140.578	1	1	0	0	217.307	227.749	210.714	4.11818	193.762	85.0677	29.9746	298.53	430.591	465.418	430.817	107.188	390.476	255.673	155.611	623.596	171.449	3.892	173.667	328.775	354.521	349.041	347.693	350.292	8192	-8191	8192	8192	254	
77140.625	1	1	0	0	207.713	235.629	209.144	5.68923	193.475	96.439	28.781	292.55	429.514	466.779	427.053	103.5	375.462	249.048	161.183	606.851	174.459	5.080	174.571	261.703	349.969	355.359	350.833	348.937	8192	-8191	8192	8192	254	
77140.672	1	1	0	0	217.131	250.109	220.082	6.15442	206.131	89.8574	26.5275	301.904	434.476	484.471	424.274	112.841	389.221	245.5	161.76	615.62	174.803	6.594	174.161	14.327	349.755	352.190	355.004	352.371	8192	-8191	8192	8192	254	
77140.742	1	1	0	0	227.428	235.454	206.867	6.87666	193.706	87.5507	34.3502	280.372	439.476	485.404	429.971	115.173	374.053	263.462	154.707	616.476	176.120	5.398	177.348	20.119	351.611	355.565	7.123	352.713	8192	-8191	8192	8192	254	
77140.789	1	1	0	0	227.991	218.311	220.461	2.8376	192.219	83.8978	19.329	284.819	439.764	474.005	441.034	112.654	382.803	256.63	160.62	618.423	178.131	4.847	176.082	238.645	350.700	354.678	357.816	348.266	8192	-8191	8192	8192	254	
77140.836	1	1	0	0	224.164	227.471	203.647	2.84894	189.625	96.996	22.9523	292.911	440.779	476.596	419.221	108.423	383.005	255.731	151.952	607.923	173.891	4.719	174.682	176.020	350.535	354.039	13.348	350.131	8192	-8191	8192	8192	254	
77140.891	1	1	0	0	208.61	232.176	216.248	2.51493	184.771	95.3993	32.6444	299.418	432.399	464.923	421.058	106.88	374.654	263.163	155.135	618.976	175.604	5.137	175.193	147.237	349.678	355.966	359.457	354.511	8192	-8191	8192	8192	254	
77140.938	1	1	0	0	230.534	225.432	209.417	4.52671	179.36	83.5638	36.9857	299.454	438.553	468.481	413.053	106.913	368.587	247.389	156.721	616.226	180.331	3.050	176.555	254.708	350.193	347.145	355.056	349.887	8192	-8191	8192	8192	254	
77140.984	1	1	0	0	207.432	233.438	212.58	7.827	174.418	86.7523	30.4168	305.92	419.553	479.601	427.495	91.0481	371.149	242.808	145.976	605.077	173.741	1.771	174.222	317.210	354.594	358.561	339.937	349.851	8192	-8191	8192	8192	254	
77141.031	1	1	0	0	217.184	232.341	201.487	5.28051	201.741	100.409	40.1485	312.454	426.197	471.067	405.322	95.9087	378.731	245.788	149.029	612.995	175.879	3.400	165.688	19.468	347.573	359.409	347.856	350.392	8192	-8191	8192	8192	254	
77141.078	1	1	0	0	207.069	223.242	224.698	5.22444	189.877	101.106	33.1198	300.443	405.428	463.885	430.601	96.8462	363.26	247.928	146.673	619.817	172.555	1.438	177.759	146.181	346.426	351.251	7.419	346.757	8192	-8191	8192	8192	254	
77141.148	1	1	0	0	212.347	218.216	205.766	8.01013	194.851	105.424	31.5806	275.357	419.356	465.043	419.635	90.9471	378.971	250.428	144.351	597.101	178.920	1.408	174.518	255.815	348.278	355.869	2.863	347.987	8192	-8191	8192	8192	254	
77141.203	1	1	0	0	223.449	224.985	212.585	2.75987	188.116	89.8846	29.7089	293.619	422.476	457.38	421.625	94.0817	362.88	232.043	143.019	617.659	174.266	3.427	170.305	202.977	351.578	351.392	351.976	350.923	8192	-8191	8192	8192	254	
77141.250	1	1	0	0	235.246	234.055	218.255	3.04749	185.934	96.2792	29.2879	297.79	432.168	464.615	426.26	97.0096	360.808	242.038	137.99	605.466	174.360	0.328	174.092	271.403	345.915	345.894	358.904	348.463	8192	-8191	8192	8192	254	
77141.297	1	1	0	0	214.934	215.983	225.521	7.30389	173.81	82.7603	32.4236	296.234	409.149	449.582	405.024	83.3365	349.216	224.721	135.534	590.5	174.152	2.556	175.110	246.723	349.776	350.104	344.920	349.219	8192	-8191	8192	8192	254	
77141.297	1	1	0	0	215.874	227.677	220.426	3.73659	187.769	99.9414	34.268	302.161	414.683	453.827	408.466	80.0721	353.683	229.317	130.216	589.942	177.347	3.159	172.937	349.091	351.836	353.994	354.532	349.092	8192	-8191	8192	8192	254	
77141.344	1	1	0	0	223.8	209.275	208.075	7.12987	195.026	96.2071	19.7805	294.415	418.933	436.466	384.029	74.4471	345.024	230.365	118.341	579.716	178.211	2.793	173.914	273.677	349.775	352.727	8.941	349.418	8192	-8191	8192	8192	254	
77141.391	1	1	5	0	226.892	236.947	209.267	4.9174	188.301	93.8025	28.772	291.79	398.433	440.236	387.798	55.8221	323.361	202.327	102.784	557.909	177.866	0.646	178.863	146.129	347.685	359.294	15.510	349.979	8192	-8191	8192	8192	254	
77141.438	1	1	0	0	209.517	217.205	211.767	8.06046	187.767	89.1634	31.4182	301.267	365.163	408.524	361.865	53.8365	319.481	204.096	100.736	553.822	177.002	1.527	177.201	8.299	349.171	353.077	357.316	347.079	8192	-8191	8192	8192	254	
77141.484	1	1	0	0	242.799	226.372	213.694	8.81712	197.809	103.594	33.0595	308.751	399.423	423.288	370.995	47.0769	323.048	204.885	101.995	567.12	177.277	7.786	173.091	138.751	349.995	356.983	339.715	351.201	8192	-8191	8192	8192	254	
77141.531	1	1	0	0	221.387	227.88	200.435	3.09023	185.475	81.9524	27.7531	300.527	385.356	416.207	363.298	45.9615	325.885	198.317	100.346	572.212	173.943	3.093	172.775	140.930	348.866	359.583	359.739	351.273	8192	-8191	8192	8192	254	
77141.609	1	1	0	0	236.222	236.879	204.994	5.6732	185.427	86.9728	23.6103	303.609	386.952	420.524	363.288	53.3654	322.558	195.154	94.0865	571.062	175.115	6.065	170.751	103.394	352.177	355.609	355.565	348.097	8192	-8191	8192	8192	254	
77141.656	1	1	0	0	234.69	231.137	230.79	2.76775	180.726	107.9	27.9368	274.227	387.962	421.827	371.697	47.0288	311.351	202.649	97.6683	547.255	174.553	1.932	170.207	283.545	348.522	354.142	349.772	349.742	8192	-8191	8192	8192	254	
77141.703	1	1	0	0	218.426	238.73	205.384	3.76432	161.383	92.818	28.313	297.841	366.615	415.808	363.245	47.649	316.913	192.712	93.351	556.577	172.311	6.795	171.383	64.636	349.384	354.885	10.800	349.948	8192	-8191	8192	8192	254	
77141.750	1	1	0	0	244.7	219.441	224.208	3.80393	184.071	97.1866	34.655	301.769	392.106	413.255	369.236	48.3269	320.947	189.591	100.495	561.101	176.569	3.392	172.099	23.596	350.126	353.788	0.336	346.801	8192	-8191	8192	8192	254	
77141.797	1	1	0	0	218.929	212.613	208.673	3.25717	173.645	100.185	30.8853	301.938	376.663	411.043	363.433	47.649	310.5	200.808	100.423	557.168	178.072	5.404	167.812	139.660	351.183	356.320	353.974	351.252	8192	-8191	8192	8192	254	
77141.852	1	1	0	0	233.349	227.979	228.634	5.76879	198.928	99.5508	30.4683	299.801	380.933	419.962	380.038	45.8606	317.861	196.192	95.7452	564.13	176.866	7.030	170.306	192.341	347.104	0.289	353.689	351.633	8192	-8191	8192	8192	254	
77141.922	1	1	0	0	216.74	219.353	219.839	2.38745	184.215	107.286	16.2604	311.531	374.192	429.091	374.875	48.1587	318.548	199.812	97.0577	565.322	172.893	5.049	173.288	46.246	351.350	354.473	353.580	350.937	8192	-8191	8192	8192	254	
77141.969	1	1	0	0	229.186	213.247	209.476	0.546036	185.213	97.758	34.7322	308.539	381.947	411.553	360.24	53.8846	323.62	195.986	95.0048	571.572	173.180	5.270	174.191	81.757	345.784	357.882	344.849	351.560	8192	-8191	8192	8192	254	
77142.016	1	1	0	0	244.75	221.028	221.674	2.15444	193.649	94.2392	32.9792	297.159	393.514	407.591	369.135	49.5192	320.356	196.793	109.505	560.043	179.426	8.168	171.132	345.742	350.751	353.183	355.768	349.160	8192	-8191	8192	8192	254	
77142.062	1	1	0	0	236.407	238.244	214.252	7.57343	191.517	86.4465	35.523	288.759	387.341	420.149	370.361	50.976	323.803	195.072	100.981	537.856	177.191	3.357	177.434	3.373	347.348	355.783	358.595	351.345	8192	-8191	8192	8192	254	
77142.062	1	1	0	0	214.613	233.777	217.031	7.72543	206.347	98.7528	33.1357	299.395	383.745	418.971	373.769	47.9375	334.106	204.389	100.779	550.798	172.885	4.412	175.323	302.945	347.181	350.817	349.699	348.774	8192	-8191	8192	8192	254	
77142.109	1	1	0	0	213.249	241.948	216.349	2.82404	196.568	94.3175	30.6487	282.316	377.567	417.962	361.966	50.4663	318.832	194.832	99.8558	568.654	176.392	4.296	176.772	226.227	347.836	351.493	355.490	348.841	8192	-8191	8192	8192	254	
77142.188	1	1	0	0	225.937	228.916	199.914	3.04295	198.209	88.8894	27.9899	301.548	388.389	418.591	373.279	54.1683	332.024	197.562	100.779	561.913	173.440	1.704	172.292	8.208	348.809	351.126	353.583	349.370	8192	-8191	8192	8192	254	
77142.234	1	1	0	0	235.429	228.975	200.426	1.80522	193.161	97.9667	25.6254	295.19	387.726	420.639	371.438	53.5096	325.385	199.49	99.649	548.466	174.910	5.901	174.136	208.033	353.532	348.076	13.596	347.286	8192	-8191	8192	8192	254	
77142.281	1	1	0	0	237.674	229.473	218.781	6.30039	187.444	86.6731	31.2497	296.872	391.923	423.543	383.096	51.6394	321.115	192.99	106.726	558.702	178.689	6.878	171.800	336.896	351.019	356.496	349.476	349.672	8192	-8191	8192	8192	254	
77142.328	1	1	0	0	240.224	231.524	206.863	6.63882	188.816	105.212	25.1163	291.666	399.452	422.837	364.75	55.2163	322.135	205.981	103.115	561.707	175.468	3.481	174.707	266.032	350.768	352.239	358.482	348.391	8192	-8191	8192	8192	254	
77142.375	1	1	0	0	228.649	225.554	197.964	2.43875	175.938	98.7929	24.7264	292.623	387.577	413.654	361.572	50.0865	317.096	206.279	100.928	570.087	175.012	8.660	167.652	240.219	346.681	351.863	355.402	349.326	8192	-8191	8192	8192	254	
77142.422	1	1	0	0	237.329	223.183	210.745	2.65642	186.059	86.0994	39.5151	301.823	393.495	421.678	377.409	52.4567	325.308	198.822	103.832	566.803	175.708	5.666	172.856	343.193	351.197	349.684	358.761	348.859	8192	-8191	8192	8192	254	
77142.469	1	1	0	0	231.101	244.326	196.022	4.57342	192.633	98.0728	30.5817	301.027	382.337	436.043	366.812	54.5433	325.058	206.683	91.8125	564.812	174.215	7.632	173.649	185.225	349.179	352.071	6.414	351.661	8192	-8191	8192	8192	254	
77142.516	1	1	0	0	226.575	228.81	217.545	0.442942	208.797	80.1161	35.8207	313.635	384.087	421.149	379.447	53.2981	334.471	199.293	107.236	570.659	173.732	4.096	177.214	329.364	350.361	0.572	348.992	345.934	8192	-8191	8192	8192	254	
77142.594	1	1	0	0	233.623	226.686	202.609	6.42545	193.693	98.406	29.5847	280.063	381.731	425.553	373.072	53.25	324.678	210.26	103.317	552.851	173.089	5.889	174.972	267.352	349.160	357.660	0.447	349.970	8192	-8191	8192	8192	254	
77142.641	1	1	0	0	235.077	214.057	197.857	2.89648	194.469	94.9279	29.3483	298.19	385.149	414.447	370.264	58.3654	328.087	199.043	108.615	561.952	177.111	6.332	173.272	199.133	348.162	356.237	5.027	348.712	8192	-8191	8192	8192	254	
77142.688	1	1	0	0	241.255	232.323	208.963	1.51537	187.354	97.1032	30.067	287.088	390.375	425.534	369.899	58.726	330.663	213.788	101.851	566.096	178.296	1.737	172.344	352.454	346.915	352.474	357.542	349.169	8192	-8191	8192	8192	254	
77142.734	1	1	0	0	235.489	228.857	221.245	0.843901	185.605	99.7466	32.4081	295.647	380.87	416.385	382.087	51.351	336.139	208.159	99.9904	557.798	174.529	1.766	173.344	93.175	350.265	353.968	359.466	347.825	8192	-8191	8192	8192	254	
77142.781	1	1	0	0	226.837	226.131	224.576	4.76559	188.6	91.7533	41.0312	299.409	376.341	422.486	371.803	59.274	322.74	200.183	110.327	570.01	177.453	2.741	174.167	133.665	350.195	357.173	359.826	349.879	8192	-8191	8192	8192	254	
77142.828	1	1	0	0	223.215	205.021	211.865	5.41821	180.627	84.567	32.6014	312.767	379.88	406.635	376.587	54.8798	332.534	203.798	102.524	585.452	174.494	6.414	174.759	283.581	350.789	348.356	353.602	352.212	8192	-8191	8192	8192	254	
77142.828	1	1	0	0	233.038	224.148	231.886	4.89837	190.486	103.37	30.9564	312.205	388.721	420.077	381.712	54.6154	325.553	205.173	105.577	572.817	173.413	1.504	175.203	226.819	351.635	356.637	356.943	346.393	8192	-8191	8192	8192	254	
77142.883	1	1	0	0	214.596	226.605	223.635	2.96447	182.761	99.4374	23.5839	313.398	381.827	426.644	373.683	54.8606	327.327	203.091	107.654	577.404	174.171	6.684	173.781	225.434	348.240	344.001	338.225	348.619	8192	-8191	8192	8192	254	
77142.953	1	1	0	0	221.573	234.647	206.134	0.643241	179.822	108.832	32.203	311.769	387.111	421.37	374.154	54.3125	327.995	209.197	107.389	572.413	175.338	5.299	173.304	308.199	351.027	354.346	352.816	349.013	8192	-8191	8192	8192	254	
77143.000	1	1	0	0	212.278	234.197	207.505	3.23448	192.241	95.8533	26.3351	308.572	378.942	424.452	372.745	53.2308	334.173	203.274	104.572	579.788	174.328	357.922	172.315	111.999	350.095	353.860	355.981	350.739	8192	-8191	8192	8192	254	
77143.047	1	1	0	0	227.61	244.634	219.027	8.91138	183.616	95.1356	30.8032	312.302	381.154	430.067	386.188	50.7596	325.913	199.298	107.462	579.721	173.647	3.647	174.838	10.877	344.830	353.723	8.327	344.207	8192	-8191	8192	8192	254	
77143.094	1	1	0	0	221.21	224.462	217.935	3.90676	196.981	95.6714	32.1211	282.728	383.812	425.264	370.933	58.5962	337.005	201.812	107.736	557.899	173.631	3.301	175.656	55.086	352.053	349.803	3.755	346.176	8192	-8191	8192	8192	254	
77143.141	1	1	0	0	221.362	212.301	214.578	2.65412	198.565	102.035	32.8418	297.738	385.591	412.038	372.048	49.9567	335.087	207.697	104.726	557.856	174.391	8.073	175.134	84.635	347.999	353.172	355.994	351.429	8192	-8191	8192	8192	254	
77143.188	1	1	0	0	224.141	224.18	207.32	2.41856	176.334	95.3822	35.6536	297.734	387.587	418.668	371.111	52.2548	313.692	205.438	107.505	558.312	174.985	2.995	172.420	197.400	352.230	356.314	347.599	349.688	8192	-8191	8192	8192	254	
77143.242	1	1	0	0	224.818	219.015	212.171	2.12937	188.154	86.3543	37.3974	280.729	379.413	417.462	379.361	53.4231	319.962	200.274	106.846	568.471	173.998	5.387	179.511	104.479	346.607	353.175	350.870	347.564	8192	-8191	8192	8192	254	
77143.289	1	1	0	0	216.505	232.2	211.597	3.416	169.673	97.5588	34.3082	307.394	379.298	423.591	374.808	50.6971	315.812	204.889	102.649	566.389	173.104	4.493	174.107	163.027	348.260	349.024	357.096	350.587	8192	-8191	8192	8192	254	
77143.336	1	1	0	0	223.32	235.645	207.987	6.41796	192.589	87.9346	22.4134	301.5	375.745	412.87	369.048	53.9663	331.288	206.019	98.7212	555.726	174.017	5.884	169.007	68.530	349.381	351.063	351.567	351.010	8192	-8191	8192	8192	254	
77143.383	1	1	0	0	230.592	222.654	209.245	4.20828	195.86	90.6981	21.6998	283.519	386.058	415.207	373.019	52.7212	327.702	208.385	99.2067	556.418	175.214	2.600	176.625	79.201	349.984	352.950	355.154	347.720	8192	-8191	8192	8192	254	
77143.453	1	1	0	0	225.521	225.7	212.97	6.66555	195.507	91.7134	29.1286	296.118	384.923	412.067	372.5	48.399	337.471	203.12	100.529	553.433	176.340	3.951	175.610	31.056	350.090	350.861	6.406	349.403	8192	-8191	8192	8192	254	
77143.508	1	1	0	0	223.21	228.502	217.307	2.12682	191.051	109.563	20.8377	290.995	390.909	422.5	379.639	49.9519	328.457	203.495	98.1875	558.976	171.893	5.158	173.713	124.696	350.337	353.420	357.537	349.848	8192	-8191	8192	8192	254	
77143.555	1	1	0	0	231.132	224.842	216.642	2.846	182.951	95.0275	31.0617	299.792	381.74	412.183	372.952	50.5288	324.183	197.476	95.2933	567.572	175.012	2.034	174.780	205.306	347.456	346.658	357.759	348.355	8192	-8191	8192	8192	254	
77143.602	1	1	0	0	244.671	239.564	201.726	2.21906	188.104	96.3954	34.2708	300.092	393.986	434.957	375.005	68.0288	335.476	224.149	114.5	592.173	176.831	5.287	175.489	273.454	352.755	357.409	346.663	350.561	8192	-8191	8192	8192	254	
77143.602	1	1	0	0	232.738	212.818	184.545	3.34753	193.623	94.9972	35.0841	321.048	409.832	437.505	385.154	75.875	359.731	232.793	134.837	612.986	173.277	2.946	172.522	93.322	348.488	357.384	359.060	349.808	8192	-8191	8192	8192	254	
77143.648	1	1	0	0	230.36	241.877	208.788	3.85305	206.647	105.965	25.0209	314.915	421.173	458.346	404.548	91.0913	365.519	239.303	137.755	610.226	173.844	1.127	173.081	19.956	348.294	352.757	343.995	350.319	8192	-8191	8192	8192	254	
77143.695	1	1	0	0	246.376	220.814	222.172	5.67296	197.553	86.576	30.9739	289.797	429.75	447.981	406.476	89.8558	360.495	233.029	135.611	594.87	172.888	2.352	172.135	179.817	346.162	354.243	345.261	352.062	8192	-8191	8192	8192	254	
77143.742	1	1	0	0	217.071	229.325	214.503	4.88181	181.525	99.2773	31.4059	290.892	420.995	458.173	416.606	91.2788	351.308	235.832	139.231	588.082	173.151	2.583	174.261	43.992	351.375	348.710	359.160	350.631	8192	-8191	8192	8192	254	
77143.812	1	1	0	0	226.801	231.238	223.466	4.2316	179.222	100.456	37.3087	309.438	422.303	452.149	410.966	86.4423	356.375	234.769	143.62	597.635	174.797	7.175	174.529	296.076	350.186	341.906	350.118	351.601	8192	-8191	8192	8192	254	
77143.867	1	1	0	0	229.744	242.684	191.944	7.42504	199.811	105.617	31.9945	298.106	417.938	458.019	399.683	91.0721	361.096	237.476	134.558	605.447	175.873	1.229	171.017	74.206	349.432	355.474	346.249	348.555	8192	-8191	8192	8192	254	
77143.914	1	1	0	0	229.975	214.858	216.908	0.116048	188.224	93.6666	26.5726	283.652	425.659	452.298	402.019	84.1394	352.135	240.678	135.197	586.447	172.984	4.750	177.541	51.994	350.343	356.484	354.418	346.500	8192	-8191	8192	8192	254	
77143.961	1	1	0	0	223.862	241.85	218.193	5.44127	187.546	106.119	19.149	303.408	413.74	451.284	405.817	76.6538	342.947	218.159	110.029	574.212	178.450	5.541	171.427	268.279	348.072	351.623	356.599	347.133	8192	-8191	8192	8192	254	
77144.008	1	1	0	0	233.262	233.476	218.537	3.70537	180.324	94.9968	32.0714	305.115	381.327	433.534	367.346	49.8029	314.226	195.183	101.76	566.428	179.441	5.998	173.108	282.291	350.077	351.271	351.279	350.647	8192	-8191	8192	8192	254	
77144.055	1	1	0	0	211.934	244.53	205.6	3.97198	194.013	103.246	23.3627	283.242	368.654	414.861	372.654	50.3077	324.659	204.058	102.111	552.106	177.078	9.441	174.297	77.567	348.664	356.605	0.180	348.370	8192	-8191	8192	8192	254	
77144.125	1	1	0	0	208.142	240.444	223.666	1.71547	197.306	100.186	28.3307	298.77	376.231	412.875	379.409	48.0913	324.428	195.692	100.702	565.889	178.785	1.977	171.430	207.272	348.201	355.663	5.735	350.657	8192	-8191	8192	8192	254	
77144.172	1	1	0	0	233.505	222.503	204.278	4.84753	174.999	89.0475	39.0008	286.042	383.5	414.673	352.692	46.9231	308.471	192.49	95.625	556.038	174.248	5.457	175.908	335.883	351.356	351.263	355.165	351.264	8192	-8191	8192	8192	254	
77144.227	1	1	0	0	229.395	221.981	206.168	2.92169	190.785	98.2987	35.2733	310.332	383.625	414.942	362.697	42.875	309.317	193.957	94.9087	563.567	172.447	5.010	174.278	30.079	346.034	348.747	357.670	349.910	8192	-8191	8192	8192	254	
77144.273	1	1	0	0	236.37	231.138	219.808	2.52318	183.162	103.903	31.4626	304.238	382.207	414.13	368.452	46.2933	313.716	196.87	97.1202	556.173	172.365	7.546	174.854	45.667	348.325	352.852	340.388	348.491	8192	-8191	8192	8192	254	
77144.320	1	1	0	0	223.878	226.516	214.081	2.94213	212.273	93.3241	28.8108	303.222	376.889	411.606	367.601	48.2163	332.077	190.178	96.9615	555.024	174.333	5.457	172.931	160.087	350.803	351.132	1.533	351.276	8192	-8191	8192	8192	254	
77144.367	1	1	0	0	232.249	220.092	210.253	5.70041	172.794	101.054	27.7383	299.307	381.111	413.462	366.716	45.2452	313.567	192.875	97.1442	553.587	175.478	7.517	172.228	243.273	347.457	352.717	343.505	348.884	8192	-8191	8192	8192	254	
77144.367	1	1	0	0	247.494	242.425	215.83	1.24434	192.559	101.917	25.2209	301.08	390.899	419.053	355.226	45.8462	318.933	196.913	95.1394	560.673	174.020	5.367	172.067	296.581	351.679	349.425	358.098	351.730	8192	-8191	8192	8192	254	
77144.414	1	1	0	0	233.824	215.559	216.234	5.0904	179.88	91.053	27.7525	291.79	373.75	413.067	371.216	44.3365	316.351	198.865	105.168	563.231	171.896	4.648	172.838	73.890	345.011	348.035	357.681	351.443	8192	-8191	8192	8192	254	
77144.461	1	1	0	0	206.126	215.231	216.342	3.62359	198.506	105.163	25.5844	303.78	367.481	403.755	377.207	49.2115	326.755	198.885	99.8173	558.688	173.841	2.261	172.662	358.847	350.794	355.606	355.630	351.395	8192	-8191	8192	8192	254	
77144.508	1	1	0	0	244.207	242.533	203.272	3.9546	182.337	92.1484	31	313.72	394.99	422.702	377.673	64.6779	333.034	225.154	123.601	601.567	174.524	5.810	173.736	334.727	349.423	355.408	344.358	350.753	8192	-8191	8192	8192	254	
77144.586	1	1	0	0	212.532	244.401	206.658	1.79972	189.486	93.7842	31.3197	300.525	407.611	467.279	405.067	89.0817	354.736	236.938	143.88	601.288	174.785	4.767	169.706	46.399	349.353	349.484	354.806	350.063	8192	-8191	8192	8192	254	
77144.633	1	1	0	0	235.556	225.164	206.133	7.49898	191.396	83.419	40.5603	296.516	432.817	460.678	409.466	92.6202	366.351	233.764	150.038	589.005	174.763	359.477	176.853	92.541	346.232	355.866	352.487	352.672	8192	-8191	8192	8192	254	
77144.680	1	1	0	0	211.917	240.753	199.234	9.0385	185.078	89.2203	26.1301	284.453	427.337	472.476	410.601	84.649	363.947	241.365	151.106	590.774	178.260	6.076	173.217	254.742	350.007	352.635	357.311	348.158	8192	-8191	8192	8192	254	
77144.727	1	1	0	0	212.672	240.527	207.512	7.17568	181.171	101.559	24.9559	310.702	433.731	473.413	407.769	93.9087	370.149	244.13	148.303	619.029	173.303	0.516	176.619	321.320	354.280	351.137	16.738	350.029	8192	-8191	8192	8192	254	
77144.773	1	1	0	0	231.426	231.41	208.125	6.375	196.466	95.7475	35.2394	297.945	441.62	475.524	413.399	101.308	372.611	244.394	143.49	606.745	170.966	359.549	170.854	126.472	350.833	356.964	358.838	345.015	8192	-8191	8192	8192	254	
77144.820	1	1	0	0	212.743	217.976	200.25	6.57995	189.342	96.4054	23.0784	289.672	428.62	468.596	412.25	95.1538	366.817	251.841	141.957	609.654	173.602	2.466	178.001	116.682	352.686	350.104	351.232	345.945	8192	-8191	8192	8192	254	
77144.875	1	1	0	0	225.582	228.919	218.29	9.0349	175.748	82.3646	29.2462	299.561	429.707	469.88	426.62	101.12	373.567	246.606	154.202	623.894	175.005	8.477	171.017	109.671	350.881	355.072	357.344	351.296	8192	-8191	8192	8192	254	
77144.922	1	1	0	0	233.483	229.651	220.538	6.17808	190.525	81.0824	37.9827	289.322	436.562	463.74	424	97.2885	373.75	239.077	158.889	624.284	173.499	0.726	173.215	189.644	349.862	351.782	6.940	349.464	8192	-8191	8192	8192	254	
77144.992	1	1	6	0	210.746	221.352	211.724	2.58259	174.81	91.2315	32.4379	308.063	429.99	468.207	425.332	101.582	356.231	253.466	153.803	613.88	171.570	4.949	174.719	221.676	351.254	350.267	355.258	353.333	8192	-8191	8192	8192	254	
77145.039	1	1	0	0	222.263	229.251	216.083	12.3502	182.144	96.5268	36.4004	294.387	439.774	473.918	416.346	102.755	371.952	242.596	152.981	614.332	175.983	2.046	171.640	347.714	346.456	353.081	17.143	350.892	8192	-8191	8192	8192	254	
77145.086	1	1	0	0	232.219	218.589	200.626	9.51997	198.102	98.8157	25.9973	295.529	434.144	457.255	421.562	104.192	377.692	249.534	150.481	605.072	175.925	6.748	172.914	83.038	349.300	354.720	4.957	347.944	8192	-8191	8192	8192	254	
77145.133	1	1	0	0	230.254	222.574	211.668	5.09878	178.675	86.5323	43.0232	288.521	437.822	478.101	411.808	98.7933	377.375	250.111	153.01	611.423	174.521	7.721	170.669	290.661	353.386	352.273	0.379	349.726	8192	-8191	8192	8192	254	
77145.133	1	1	0	0	242.823	243.319	217.715	5.70856	202.055	93.5206	21.1144	290.409	440.668	480.659	435.615	99.2019	379.889	248.885	151.308	613.755	174.007	0.071	175.595	156.192	350.715	353.614	349.955	351.314	8192	-8191	8192	8192	254	
77145.188	1	1	0	0	232.832	219.933	199.653	1.30364	187.841	94.7216	31.9575	299.459	437.466	470.952	422.692	99.7452	363.856	249.322	156.885	623.688	176.309	1.706	173.162	131.429	347.596	353.199	3.115	349.972	8192	-8191	8192	8192	254	
77145.258	1	1	0	0	229.122	226.699	212.323	10.4609	182.967	97.1009	41.603	291.516	445.553	473.663	433.933	106.808	389.562	248.385	161.101	632.495	175.650	6.173	173.590	225.070	347.977	350.845	345.615	349.705	8192	-8191	8192	8192	254	
77145.305	1	1	0	0	227.811	223.446	206.057	9.25792	190.768	94.5374	32.7931	287.446	457.62	478.178	424.644	111.654	391.803	258.587	164.284	618.457	173.346	2.130	169.185	244.017	347.230	349.463	2.617	351.164	8192	-8191	8192	8192	254	
77145.352	1	1	0	0	211.706	232.393	202.716	10.5144	183.959	99.9697	36.026	288.65	438.923	499.875	426.596	109.702	375.591	262.62	164.067	632.486	173.230	2.943	175.938	77.711	349.418	350.002	4.730	348.736	8192	-8191	8192	8192	254	
77145.398	1	1	0	0	238.766	229.657	217.576	9.49079	179.473	91.1972	26.102	287.852	465.481	470.99	440.529	119.005	384.284	286.399	180.154	648.096	176.578	7.295	177.959	225.342	349.558	357.581	15.081	351.579	8192	-8191	8192	8192	254	
77145.445	1	1	0	0	224.745	220.841	211.647	11.8032	172.145	96.6521	29.2109	314.254	465.562	484.971	454.606	127.827	387.889	275.923	167.264	632.601	174.269	359.911	177.800	339.371	349.071	359.688	351.239	349.153	8192	-8191	8192	8192	254	
77145.492	1	1	0	0	223.182	207.357	207.454	2.17964	184.592	107.449	25.4569	293.082	444.534	476.231	428.375	111.707	377.418	265.875	163.62	607.159	175.705	5.837	174.252	211.354	348.396	356.347	3.038	350.936	8192	-8191	8192	8192	254	
77145.547	1	1	0	0	237.836	214.571	208.336	15.7265	180.898	100.791	38.9657	299.144	448.894	479.428	426.183	114.644	377.822	269.298	159.736	636.962	173.883	4.624	176.528	330.105	345.599	352.585	352.909	349.551	8192	-8191	8192	8192	254	
77145.594	1	1	0	0	221.033	255.001	206.964	5.15005	211.997	97.7107	37.1349	272.958	447.837	475.356	420.024	109.986	384.856	258.976	158.683	608.899	174.066	3.484	176.030	222.419	352.070	353.463	343.198	348.540	8192	-8191	8192	8192	254	
77145.664	1	1	0	0	227.873	233.513	222.858	5.07677	183.789	90.3234	33.6427	306.002	428.457	471.611	427.952	101.519	372.351	255.269	157.058	624.62	172.471	3.129	173.985	46.302	352.093	358.898	2.805	349.316	8192	-8191	8192	8192	254	
77145.711	1	1	0	0	212.008	227.155	224.671	1.86253	194.868	86.824	33.9532	300.57	424.543	473.25	421.312	100.697	385.293	241.115	158.404	607.678	174.734	4.044	171.920	176.170	351.804	353.835	345.203	350.037	8192	-8191	8192	8192	254	
77145.758	1	1	0	0	222.903	223.875	222.267	1.88718	180.91	85.5678	35.3821	290.638	422.812	474.918	420.62	99.5577	380.923	267.981	158.995	621.317	176.091	4.499	170.286	227.124	345.006	352.620	358.983	349.886	8192	-8191	8192	8192	254	
77145.805	1	1	0	0	242.086	231.317	223.551	1.25411	186.434	88.5222	26.3808	308.802	453.798	482.567	445.197	119.457	391.298	278.471	171.087	650.207	173.446	3.273	173.795	170.316	350.333	350.563	355.996	349.143	8192	-8191	8192	8192	254	
77145.852	1	1	0	0	222.712	228.381	223.026	1.24522	191.895	89.6233	22.0341	302.362	473.154	500.5	470.322	146.986	417.745	296.913	204.298	678.966	175.474	4.282	168.641	20.395	354.011	343.288	1.762	349.077	8192	-8191	8192	8192	254	
77145.906	1	1	0	0	208.813	233.457	220.68	2.75506	191.136	105.068	29.2714	298.228	479.173	539.423	490.356	168.072	438.904	314.072	223.312	695.49	177.676	5.854	174.049	340.164	350.493	2.412	348.307	347.933	8192	-8191	8192	8192	254	
77145.906	1	1	0	0	238.908	228.946	198.806	9.96902	188.886	97.0288	36.9995	290.936	512.981	574.053	491.74	199.788	466.587	348.889	252.538	716.668	174.948	3.992	174.237	81.326	352.133	347.138	357.803	350.178	8192	-8191	8192	8192	254	
77145.953	1	1	0	0	204.072	241.652	208.508	11.3036	175.657	87.4853	30.1254	315.237	535.255	590.769	523.63	217.337	476.428	367.889	271.875	751.322	177.468	1.000	174.777	70.819	351.431	354.021	352.262	352.160	8192	-8191	8192	8192	254	
77146.023	1	1	0	0	235.88	234.814	210.42	11.3627	179.433	87.8695	31.2691	295.141	556.875	599.899	561.053	230.288	501.894	397.091	277.216	744.322	177.104	3.621	171.176	194.537	350.361	353.014	1.689	350.335	8192	-8191	8192	8192	254	
77146.070	1	1	0	0	239.681	223.209	220.162	6.67003	167.324	100.106	32.2286	301.202	565.822	599.438	558.639	240.832	512.212	398.024	298.38	758.986	170.213	3.936	167.788	214.547	355.045	1.304	9.909	348.771	8192	-8191	8192	8192	254	
77146.117	1	1	0	0	215.517	226.714	201.368	4.05091	202.424	100.127	36.1676	295.265	574.135	623.385	576.005	258.25	531.851	400.587	303.01	777.067	173.738	2.658	172.712	168.632	349.545	344.335	336.196	351.229	8192	-8191	8192	8192	254	
77146.164	1	1	0	0	219.415	219.431	197.692	2.89847	171.188	72.629	32.1415	316.383	583.971	623.462	564.851	252.712	510.404	404.851	297.038	765.962	174.738	1.971	175.109	221.857	351.017	354.039	6.809	353.073	8192	-8191	8192	8192	254	
77146.219	1	1	0	0	230.949	235.783	209.13	4.82918	203.985	76.905	51.5072	309.232	587.375	621.707	568.572	241.817	537.788	391.88	291.389	758.88	173.108	6.440	174.467	289.039	350.315	344.209	9.708	346.310	8192	-8191	8192	8192	254	
77146.266	1	1	0	0	223.781	239.251	195.498	3.40738	184.465	104.216	45.602	295.786	558.125	605.861	553.808	231.663	503.928	389.13	290.365	736.591	174.899	1.227	170.140	124.203	342.776	348.302	10.047	352.170	8192	-8191	8192	8192	254	
77146.312	1	1	0	0	228.355	231.29	198.483	4.3009	188.098	90.7346	29.3034	311.684	573.591	589.606	536.731	237.269	518.101	377.072	285.817	754.154	178.254	4.277	175.357	187.600	350.852	357.393	339.357	346.918	8192	-8191	8192	8192	254	
77146.359	1	1	0	0	235.885	247.755	197.39	7.67916	190.846	92.017	40.7852	289.771	584.716	619.846	572.337	256.519	533.688	397.476	305.846	769.817	169.303	4.732	172.595	275.171	348.526	349.524	349.433	348.063	8192	-8191	8192	8192	254	
77146.430	1	1	0	0	236.138	217.701	221.676	4.15164	200.254	98.2426	28.2885	303.718	607.736	639.062	598.962	257.264	567.909	430.986	320.562	804.865	172.700	6.076	178.311	156.018	351.551	354.968	343.978	347.679	8192	-8191	8192	8192	254	
77146.477	1	1	0	0	241.315	229.215	235.592	9.66242	193.813	93.656	34.1626	293.432	611.851	661.37	607.875	268.731	550.923	412.986	320.13	789.976	173.170	4.441	174.821	194.446	345.513	356.200	12.231	349.156	8192	-8191	8192	8192	254	
77146.531	1	1	0	0	218.81	188.194	159.373	8.15982	110.844	46.8051	11.2949	90.0063	579.933	562.034	473.683	212.37	368.072	264.649	187.168	326.317	170.601	4.278	172.060	224.213	348.840	350.628	3.932	345.515	8192	-8191	8192	8192	254	
77146.578	1	1	0	0	24.3823	15.2793	11.0466	6.98741	6.58644	2.28125	5.26306	5.30229	209.861	177.788	151.577	127.933	126.082	127.736	127.755	142.764	168.240	12.038	178.819	87.313	222.761	234.768	223.199	144.085	8192	-8191	8192	8192	254	
77146.625	1	1	0	0	14.0888	43.3305	124.85	134.267	97.1539	24.6926	106.257	57.9571	233.755	936.74	7291.88	11725.3	13154	11222.8	10132.3	9873.87	122.059	164.325	122.558	125.886	14.344	210.903	79.276	211.411	8192	-8191	8192	8192	254	
77146.672	1	1	0	0	55.4048	22.2334	86.4142	60.0779	75.9048	44.2077	29.4537	61.8948	9367.72	9633.9	9817.5	10223.7	10612	10798.8	11084.5	11136.8	118.257	170.941	171.382	339.057	178.924	190.353	59.064	272.910	8192	-8191	8192	8192	254	
77146.672	1	1	0	0	52.4172	78.7326	63.5544	134.942	64.6507	57.2874	49.966	73.0021	11202	11444.9	11814.7	12011	12321.2	12238.9	12180.1	12462.5	269.707	338.784	101.546	305.877	62.791	302.791	6.569	253.517	8192	-8191	8192	8192	254	
77146.719	1	1	0	0	56.4887	29.209	48.6869	61.5828	111.156	17.0369	92.3425	120.047	12715.4	12756.3	12653.9	12803.8	13078.7	13165.3	12942.6	12827.6	319.751	161.122	194.905	133.780	183.094	120.868	16.467	308.180	8192	-8191	8192	8192	254	
77146.766	1	1	0	0	34.9672	26.1749	125.456	115.063	105.251	78.3061	71.9141	86.8354	12650	12452.9	11312.1	12121.9	13030	15369.1	16167.4	16074.7	71.188	278.172	32.200	113.088	78.428	136.411	1.811	230.291	8192	-8191	8192	8192	254	
77146.812	1	1	0	0	37.1855	80.9107	37.5412	14.0265	96.9749	142.346	65.475	143.52	15939.2	16552.4	16890	16956.7	16848.3	16434	15831.1	15689.7	329.434	172.131	288.663	51.567	86.438	140.796	224.827	186.647	8192	-8191	8192	8192	254	
77146.891	1	1	0	0	10.2978	19.3516	29.5549	52.411	180.129	19.0847	47.0445	144.891	16460	18047.4	18199.7	19012.6	22256.5	21583.5	19481.4	20711.4	237.106	112.762	218.307	160.055	120.047	329.974	347.959	146.352	8192	-8191	8192	8192	254	
77146.938	1	1	0	0	108.884	17.2106	47.8103	71.67	112.754	20.875	19.2524	9.56384	21637.5	21466.9	19709.6	16940.1	8940.03	1177.02	980.812	997.538	86.563	244.406	230.376	298.669	287.931	12.078	286.005	165.994	8192	-8191	8192	8192	254	
77146.984	1	1	0	0	13.1661	23.2973	19.6516	25.2984	46.3386	27.5167	25.5661	8.51823	1033.22	1056.7	1085.38	1065.9	1097.45	1140.3	1122.54	1180.93	12.653	20.365	203.006	213.400	134.293	324.951	306.170	77.838	8192	-8191	8192	8192	254	
77147.031	1	1	0	0	22.0296	16.5431	3.5535	18.9683	27.1093	21.3851	27.4911	15.9723	1336.17	1383.75	1443.73	1411.26	1429.52	1455.52	1469.33	1489.08	295.354	316.710	82.434	125.922	99.912	344.377	199.450	2.279	8192	-8191	8192	8192	254	
77147.078	1	1	0	0	36.9561	11.2021	12.8223	17.0531	12.9895	34.1243	27.514	14.1479	1501.85	1542.22	1581.78	1575.04	1513.68	1525.47	1416	1416.88	9.113	108.521	11.304	78.528	112.149	246.388	212.122	12.650	8192	-8191	8192	8192	254	
77147.125	1	1	0	0	21.6442	57.003	34.1672	79.82	32.8568	53.1666	64.5707	127.009	1296.72	2685.03	6610.16	9027.94	10042.7	10337	10357.5	10277	269.823	90.467	100.328	166.824	247.859	211.829	66.494	250.758	8192	-8191	8192	8192	254	
77147.195	1	1	0	0	106.464	68.5827	82.9757	57.1934	12.3471	40.9481	74.7074	72.6289	10172.7	10078.9	10106.8	10108.3	10175.4	10093.7	10215.1	10120.8	8.326	31.818	302.550	93.673	359.098	344.549	227.836	252.746	8192	-8191	8192	8192	254	
77147.250	1	1	0	0	45.5289	80.6657	6.00915	96.2622	50.2924	39.6668	83.0574	75.1652	10250.9	10246.7	10209.5	10296.8	10179.2	10223.8	10227.7	10249.1	340.372	45.774	183.364	17.554	75.255	62.534	325.481	163.103	8192	-8191	8192	8192	254	
77147.297	1	1	0	0	19.9904	84.9645	34.7901	13.0495	43.3786	51.4594	58.1237	9.30066	10166.7	10161.2	10047.2	10050.7	10096.7	10042.7	10019	9915.89	75.868	300.182	321.434	192.479	317.595	276.245	332.331	251.287	8192	-8191	8192	8192	254	
77147.344	1	1	0	0	32.7477	27.5545	19.9124	102.941	125.742	30.845	60.4689	66.6967	9920	9916.64	9785.76	9741.38	9710.53	9616.26	9476.28	9393.19	201.493	278.785	151.315	197.586	248.451	157.961	348.498	275.225	8192	-8191	8192	8192	254	
77147.391	1	1	0	0	99.3568	46.644	18.8403	11.8353	16.2297	74.7945	46.7733	61.8749	9218.99	9030.81	8938.09	8685.85	8609.8	8446.57	8343.47	8200.52	195.069	257.402	239.517	257.676	306.366	321.864	217.644	271.658	8192	-8191	8192	8192	254	
77147.438	1	1	0	0	86.1939	32.2623	52.9573	57.4465	40.8488	120.488	33.0336	50.0487	8088.88	7804.53	7752.87	7690.51	7638.47	7684.31	7751.12	7687.94	232.248	298.668	308.571	67.248	63.566	129.971	88.209	41.471	8192	-8191	8192	8192	254	
77147.438	1	1	0	0	30.291	77.6708	72.9776	81.8913	35.462	13.5813	31.0065	17.4212	7644.26	7565.27	7557.83	7231.22	1540.53	1277.83	1292.5	1279.19	356.701	59.677	203.375	296.084	254.393	279.919	52.506	254.849	8192	-8191	8192	8192	254	
77147.484	1	1	0	0	21.3848	7.45508	13.1191	7.80739	27.6879	16.8328	18.4948	1.46139	1275.86	1291.82	1309.1	1309.78	1286.15	1296.72	1291.58	1295.63	8.668	124.834	45.642	95.779	196.848	134.267	304.996	52.249	8192	-8191	8192	8192	254	
77147.539	1	1	0	0	13.202	34.5007	35.3808	9.19866	16.4678	18.4717	13.4341	27.0793	1304.4	1312.51	1329.44	1312.47	1324.93	1318.51	1301.39	1309.67	27.066	106.053	345.509	311.749	178.546	128.214	318.421	62.390	8192	-8191	8192	8192	254	
77147.586	1	1	0	0	1.91617	38.6706	6.60765	21.0604	7.66447	20.1657	29.6015	35.4142	1312.75	1328.14	1305.43	1324.3	1302.57	1310.47	1322.24	1327.64	22.167	105.149	228.315	356.458	10.091	210.357	246.702	53.269	8192	-8191	8192	8192	254	
77147.656	1	1	0	0	12.3622	16.4342	10.921	18.3916	8.03819	16.7474	24.0937	16.2613	1318.91	1345.07	1329.32	1373.38	1940.45	1088.17	421.058	241.587	210.210	5.425	151.566	200.649	232.957	234.753	304.173	251.646	8192	-8191	8192	8192	254	
77147.703	1	1	0	0	10.1204	7.8576	10.6991	7.12016	17.9505	1.97308	19.0085	7.6525	194.048	203.418	200.846	200.577	202.803	205.562	195.649	205.543	213.088	286.027	295.012	181.862	3.263	39.681	123.742	157.427	8192	-8191	8192	8192	254	
77147.750	1	1	0	0	7.24886	3.53665	12.6048	17.3395	8.41323	1.56011	16.6849	1.70144	198.596	201.63	200.952	201.798	191.625	197.779	193.885	184.62	229.046	59.015	280.889	187.258	69.109	274.830	177.751	11.666	8192	-8191	8192	8192	254	
77147.797	1	1	0	0	6.25187	4.97284	12.0665	9.09583	4.37394	2.83201	17.4785	4.77336	183.139	177.668	182.337	171.611	177.798	166.433	160.423	158.13	231.929	332.250	327.738	1.386	344.615	168.193	153.336	184.682	8192	-8191	8192	8192	254	
77147.844	1	1	0	0	5.75359	6.65995	6.93403	6.46784	9.05879	2.09476	2.1679	2.57554	158.226	150.88	141.649	138.856	139.745	145.25	136.087	132.216	68.722	204.834	76.954	252.145	249.799	50.878	227.865	329.811	8192	-8191	8192	8192	254	
77147.898	1	1	0	0	10.5487	3.98541	8.68425	11.6503	10.726	6.28937	1.24717	7.71763	142.168	143.471	148.091	141.625	148.447	135.163	143.303	148.12	217.361	195.021	4.937	302.201	233.106	76.585	24.197	289.681	8192	-8191	8192	8192	254	
77147.945	1	1	0	0	5.0842	3.29603	9.4189	7.60033	15.4836	23.0775	13.7301	86.6674	140.577	155.812	168.683	180.423	259.135	306.582	345.106	501.909	176.125	310.883	200.239	38.618	359.712	335.001	14.190	6.790	8192	-8191	8192	8192	254	
77147.992	1	1	0	0	71.6108	65.9206	46.5084	20.9292	63.7246	22.4079	11.8553	97.3067	436.168	469.216	460.75	358.755	461.774	422.346	371.12	529.861	170.585	9.851	186.307	23.293	349.290	337.271	45.373	5.971	8192	-8191	8192	8192	254	
77148.062	1	1	0	0	74.9645	51.857	81.791	11.5613	64.1396	37.7282	22.7929	102.246	457.341	458.697	462.736	356.894	440.736	411.438	374.197	515.913	177.232	20.310	191.031	7.031	340.567	334.004	353.221	347.889	8192	-8191	8192	8192	254	
77148.109	1	1	0	0	51.2319	73.5214	60.1642	15.2028	57.3657	40.2572	13.7398	95.4786	442.394	447.231	450.058	344.014	439.159	398.875	356.832	482.673	184.400	5.666	187.192	198.130	356.811	352.542	317.760	353.459	8192	-8191	8192	8192	254	
77148.156	1	1	0	0	54.4935	64.1443	57.024	13.5476	52.6889	33.8343	7.53774	93.8855	431.572	441.894	417.51	312.192	395.87	349.49	316.76	459.212	178.135	9.326	186.263	235.442	6.275	339.174	45.224	353.768	8192	-8191	8192	8192	254	
77148.211	1	1	0	0	71.4979	67.7583	52.6078	13.1808	54.4201	28.0755	12.6776	85.2362	383.952	391.428	369.279	261.399	344.543	293.808	249.812	394.495	183.059	13.575	186.929	52.520	355.865	32.155	307.805	355.672	8192	-8191	8192	8192	254	
77148.203	1	1	0	0	69.3958	67.8848	63.0571	7.86636	56.9582	30.3132	20.0774	95.4977	317.702	322.236	284.591	201.471	272.26	220.923	194.899	331.913	189.522	6.587	178.391	155.102	3.956	9.040	12.695	350.600	8192	-8191	8192	8192	254	
77148.258	1	1	0	0	71.8181	65.5689	59.3153	2.0452	54.8699	22.4736	22.2171	92.8275	276.856	268.524	254.356	155.981	235.596	189.226	167.269	304.327	184.982	5.908	174.009	182.120	359.932	320.541	30.353	0.440	8192	-8191	8192	8192	254	
77148.328	1	1	0	0	63.1582	66.0143	68.994	7.11537	46.0686	31.8886	7.52519	86.0728	238.635	241.755	223.26	128.913	199.115	167.904	132.019	262.154	175.362	7.486	173.519	234.452	355.592	352.518	0.439	356.864	8192	-8191	8192	8192	254	
77148.375	1	1	0	0	58.216	59.0129	43.1417	6.07197	48.5885	33.8037	8.31425	86.6072	204.99	208.399	186.197	108.538	170.582	145.264	115.909	259.341	185.334	15.162	175.588	305.661	351.070	356.184	19.801	349.242	8192	-8191	8192	8192	254	
77148.422	1	1	0	0	55.9951	61.4074	65.6333	11.7618	46.6362	29.1243	4.69272	72.6095	189.125	200.37	192.774	113.202	180.558	147.442	119.918	257.452	187.558	16.443	182.607	335.633	12.854	357.298	17.211	358.213	8192	-8191	8192	8192	254	
77148.469	1	1	0	0	63.0711	64.1459	61.2519	6.82713	51.0493	31.999	8.94466	90.6268	198.899	201.865	191.096	112.659	179.168	157.226	118.543	254.769	181.778	15.419	182.139	203.525	352.184	345.022	39.415	352.989	8192	-8191	8192	8192	254	
77148.523	1	1	0	0	59.872	47.2192	53.2178	11.2278	57.0358	27.5219	12.0738	86.4442	192.447	207.486	189.981	107.303	187.615	158.058	123.399	264.942	179.890	29.656	205.681	196.288	356.619	358.510	22.898	345.598	8192	-8191	8192	8192	254	
77148.570	1	1	0	0	52.1011	59.8462	56.5477	6.49879	48.1248	26.7052	10.5257	78.6883	191.798	195.053	191.837	113.394	186.197	154.024	126.582	257.846	180.084	2.157	173.338	285.621	358.317	17.219	297.416	348.802	8192	-8191	8192	8192	254	
77148.617	1	1	0	0	69.9118	54.102	56.8616	8.76776	48.9086	33.0365	11.1965	78.8624	208.202	218.644	220.832	152.38	237.841	198.062	163.745	286.817	182.138	12.699	180.825	271.948	347.031	357.427	356.706	352.226	8192	-8191	8192	8192	254	
77148.664	1	1	0	0	60.7971	57.1289	50.2093	8.38723	53.746	24.2755	10.6917	83.9676	208.231	213.865	205.63	113.538	190.202	152.385	116.764	255.803	169.675	3.742	179.646	17.334	355.722	351.865	332.354	348.221	8192	-8191	8192	8192	254	
77148.734	1	1	0	0	54.8385	65.866	45.4255	4.53458	56.1559	26.8007	8.16831	82.3644	197.635	208.351	193.606	116.51	188.745	158.856	120.433	248.639	175.155	12.659	178.628	143.623	5.583	345.988	11.797	350.706	8192	-8191	8192	8192	254	
77148.781	1	1	0	0	65.8054	62.3107	46.7128	1.72379	55.8073	31.0603	9.07101	75.9522	191.784	205.37	176.014	102.043	180.25	137.894	111.375	237.154	181.351	15.142	162.765	344.502	351.010	350.217	24.578	354.346	8192	-8191	8192	8192	254	
77148.828	1	1	0	0	58.869	66.9302	56.0619	13.3547	57.0315	37.1119	11.7895	88.9616	179.135	188.673	179.077	96.0673	165.106	138.822	104.409	239.976	192.382	19.859	180.746	155.460	356.656	345.899	348.184	354.396	8192	-8191	8192	8192	254	
77148.883	1	1	0	0	58.0784	57.898	59.3459	3.06961	61.5052	24.4757	9.5428	91.4803	178.918	185.351	182.889	98.1587	171.327	136.409	107.933	245.558	176.740	8.608	186.534	215.546	349.448	19.223	351.320	347.662	8192	-8191	8192	8192	254	
77148.930	1	1	0	0	60.9003	63.3243	48.382	6.83024	51.7091	24.5836	9.19075	86.8821	189.168	188.356	174.231	95.2692	170.298	138.394	115.784	247.428	188.014	359.685	178.696	1.589	358.348	13.220	359.813	358.203	8192	-8191	8192	8192	254	
77148.977	1	1	0	0	64.7129	59.3122	63.806	7.12448	45.3699	24.2285	11.4621	83.5469	180.264	189.692	180.312	100.288	162.159	146.337	113.966	242.635	178.306	5.333	170.718	188.368	358.171	341.526	13.846	356.112	8192	-8191	8192	8192	254	
77148.977	1	1	0	0	57.7391	57.829	61.6211	2.66585	46.6972	23.8212	5.97153	86.4308	181.827	199.226	172.928	90.9231	165.538	140.769	106.466	245.082	184.125	16.698	181.533	352.557	357.305	0.338	339.764	357.295	8192	-8191	8192	8192	254	
77149.023	1	1	0	0	59.0047	60.4668	52.9452	4.3074	47.8852	26.28	12.7532	77.8133	182.861	192.495	175.005	97.7596	164.889	137.88	114.519	236.957	178.075	8.878	178.875	186.547	354.097	355.948	4.208	354.816	8192	-8191	8192	8192	254	
77149.070	1	1	0	0	56.5935	61.5013	55.362	9.41761	42.4899	29.4955	2.89583	93.0908	185.25	195.082	182.192	98.476	174.62	141.466	113.904	248.721	176.684	8.187	190.301	348.015	1.220	357.595	147.947	348.393	8192	-8191	8192	8192	254	
77149.117	1	1	0	0	58.0968	57.7765	54.7194	10.7751	61.8593	28.9714	11.0482	78.4776	184.793	182.635	188.361	106.399	169.447	137.462	117.077	237.188	185.391	4.997	179.526	329.461	356.482	5.671	278.336	2.770	8192	-8191	8192	8192	254	
77149.195	1	1	0	0	49.9054	54.6282	66.3498	11.2395	47.336	27.1282	3.21406	90.5737	189.226	201.889	191.423	107.74	176.74	151.635	117.63	250.308	173.065	359.342	176.140	46.351	351.885	3.850	16.442	351.383	8192	-8191	8192	8192	254	
77149.242	1	1	0	0	53.358	45.7838	49.6644	4.11145	56.6853	23.0095	10.6124	80.0237	190.712	189	182.413	106.139	181.904	150.918	121.365	252.99	194.671	9.132	184.628	156.300	350.601	343.854	65.886	353.232	8192	-8191	8192	8192	254	
77149.289	1	1	0	0	51.3068	64.8236	46.6204	4.91551	59.2997	32.0949	12.4508	89.3231	195.202	200.822	188.62	109.769	183.942	147.986	121.24	257.216	197.915	6.767	181.398	185.340	356.774	353.930	39.941	357.059	8192	-8191	8192	8192	254	
77149.336	1	1	0	0	50.7921	49.834	48.1781	7.87306	56.8573	28.4455	13.2343	105.561	189.12	209.361	197.755	106.062	182.144	158.904	126.221	268.173	186.532	18.626	178.899	63.808	346.345	348.628	24.648	359.061	8192	-8191	8192	8192	254	
77149.383	1	1	0	0	60.9329	64.8398	61.8388	1.72939	61.0542	34.3716	14.6875	100.805	203.846	214.736	211.841	120.803	192.24	160.154	136.404	276.245	179.441	7.967	172.018	15.847	357.769	355.975	336.889	352.287	8192	-8191	8192	8192	254	
77149.430	1	1	0	0	66.0284	61.4875	59.9294	6.06244	52.1485	29.4505	8.0324	85.5225	214.183	207.587	200.135	118.067	200.115	165.255	137.288	275.216	175.481	14.440	170.481	68.398	355.735	0.099	48.910	348.963	8192	-8191	8192	8192	254	
77149.508	1	1	0	0	57.2849	65.6454	43.5599	2.82078	50.1403	28.7574	12.5429	103.425	210.216	216.029	194.822	114.76	190.087	148.375	130.514	261.058	174.994	7.913	177.763	1.664	351.385	2.889	338.614	355.849	8192	-8191	8192	8192	254	
77149.555	1	1	0	0	66.8377	61.7302	50.9193	6.26063	58.8193	32.7953	11.0423	74.0128	191.875	202.572	192.312	105.341	178.774	146.413	112.803	244	177.798	5.981	181.903	72.915	355.729	345.654	318.048	354.630	8192	-8191	8192	8192	254	
77149.602	1	1	0	0	54.3993	59.9307	46.8286	6.2748	59.371	18.6444	12.7345	85.2812	187.139	196.788	171.885	99.0577	179.505	140.76	114.389	242.389	188.609	14.235	180.233	151.531	356.971	359.291	356.359	341.535	8192	-8191	8192	8192	254	
77149.648	1	1	0	0	64.3392	60.5485	52.1039	5.12526	50.2503	19.8841	6.80358	80.2271	178.856	192.899	175.236	96.0433	165.192	139.389	108.976	233.452	180.675	7.389	175.751	297.002	359.053	345.818	2.964	355.688	8192	-8191	8192	8192	254	
77149.695	1	1	0	0	58.878	62.4788	46.3774	1.88498	52.3658	21.9939	8.93475	99.382	175.442	170.692	155.548	60.0913	131.923	94.6394	69.375	199.346	179.511	11.582	173.599	136.173	354.055	356.310	326.287	354.711	8192	-8191	8192	8192	254	
77149.742	1	1	0	0	58.5834	57.4381	67.6447	2.88512	48.5255	22.3283	2.87723	79.7827	140.769	139.361	130.702	44.899	115.269	90.0385	58.0577	189.471	178.096	11.793	179.187	176.258	351.378	355.696	314.163	344.583	8192	-8191	8192	8192	254	
77149.742	1	1	0	0	57.0899	56.4351	55.8678	0.824906	48.1049	30.8451	8.24421	97.5279	132.043	140.601	124.327	44.4183	119.736	93.1731	59.8365	200.885	184.354	14.115	174.154	266.079	348.587	13.978	33.914	355.793	8192	-8191	8192	8192	254	
77149.789	1	1	0	0	59.9237	52.5522	59.3903	2.53165	63.0692	36.6428	13.3994	86.8577	133.139	138.125	127.269	45.7644	124.644	94.274	65.1394	194.038	185.363	9.797	179.196	105.094	349.870	0.105	18.286	353.191	8192	-8191	8192	8192	254	
77149.836	1	1	0	0	61.1329	54.0156	53.0259	0.583473	49.8038	22.1457	9.33203	80.9168	137.601	147.938	140.553	53.2019	129.889	98.6779	73.6298	216.346	179.654	10.351	172.370	174.784	347.596	359.665	13.681	352.318	8192	-8191	8192	8192	254	
77149.891	1	1	0	0	65.6469	60.6533	48.9402	3.17439	57.1454	26.3695	7.17041	69.1809	163.106	168.51	162.322	88.1394	164.226	124.894	103.514	225.154	173.132	14.475	175.582	105.913	350.011	352.503	343.813	347.320	8192	-8191	8192	8192	254	
77149.961	1	1	0	0	59.4535	50.6058	55.1713	5.39728	45.2806	26.0917	2.70398	87.2512	167.341	183.976	178.947	84.9856	163.096	133.457	104.793	233.322	190.074	9.184	184.605	139.483	351.695	341.168	34.715	352.754	8192	-8191	8192	8192	254	
77150.008	1	1	0	0	51.2211	55.1472	52.4578	5.54314	53.4911	26.5066	4.48361	85.2186	174.067	183.168	164.817	89.1058	166.149	129.712	100.106	232.058	187.701	5.364	168.254	348.744	352.149	15.223	335.798	352.549	8192	-8191	8192	8192	254	
77150.055	1	1	7	0	55.9468	56.5112	64.7464	5.85202	59.2	29.5032	8.70131	79.4546	172.106	185.399	176.63	91.0288	162.399	130.173	105.606	226.466	183.095	9.889	172.431	148.197	346.512	351.751	34.007	354.465	8192	-8191	8192	8192	254	
77150.102	1	1	0	0	63.3685	53.1862	59.8157	7.5803	52.2914	36.5655	8.6146	91.6457	182.938	183.284	172.726	90.101	156.673	129.188	104.803	236.447	181.402	20.331	177.956	0.078	354.315	2.352	338.347	351.645	8192	-8191	8192	8192	254	
77150.148	1	1	0	0	58.8076	56.1721	55.4018	11.529	52.8781	28.4527	3.96636	84.6996	174.452	189.899	171.183	79.6154	150.716	118.274	82.2019	200.394	184.480	3.027	176.914	318.030	357.234	337.492	67.705	355.199	8192	-8191	8192	8192	254	
77150.203	1	1	0	0	55.3541	64.6332	63.1616	1.79841	50.602	18.9217	9.2239	90.664	147.851	161.12	137.264	52.4615	132.053	90.3317	62.9279	195.274	172.767	6.916	171.912	224.787	350.719	347.368	351.582	354.041	8192	-8191	8192	8192	254	
77150.250	1	1	0	0	51.7308	67.1826	60.019	3.94147	48.5292	25.7891	12.2434	80.7451	130.447	150.466	134.798	49.3654	117.37	93.1058	57.8365	196.481	194.883	9.276	180.846	45.213	348.254	352.786	346.453	359.817	8192	-8191	8192	8192	254	
77150.297	1	1	0	0	64.1632	44.7392	56.1713	4.62849	46.6602	31.4078	10.8602	89.1723	132.654	138.26	127.904	45.6058	116.639	87.3798	62.9087	196.966	184.360	12.854	181.002	217.769	356.309	4.251	1.840	354.127	8192	-8191	8192	8192	254	
77150.367	1	1	0	0	41.9775	66.9174	44.8485	3.16308	49.8835	23.5964	10.4707	75.4311	128.596	143.63	121.639	47.2115	123.87	87.9375	66.226	196.043	179.125	15.765	179.906	341.296	352.818	344.555	332.767	352.784	8192	-8191	8192	8192	254	
77150.414	1	1	0	0	68.9584	62.6621	54.5094	6.15297	43.7533	24.6818	7.38539	96.7662	141.154	139.957	134.375	50.601	126.428	93.9519	68.7115	204.587	183.224	13.216	178.172	251.858	358.620	358.972	30.645	352.259	8192	-8191	8192	8192	254	
77150.461	1	1	0	0	61.1231	70.3456	47.5579	2.50125	46.4488	28.6912	9.66698	89.6332	138.543	150.889	137.274	49.6971	122.923	94.5625	67.2067	197.462	184.139	4.893	171.488	278.749	359.843	352.711	24.730	356.795	8192	-8191	8192	8192	254	
77150.516	1	1	0	0	61.942	66.3198	57.4484	6.01863	53.482	26.5089	9.18178	84.3599	135.279	147.212	139.26	56.3894	128.409	90.9423	68.3029	193.385	182.643	3.178	183.477	177.394	351.875	5.752	298.662	345.034	8192	-8191	8192	8192	254	
77150.516	1	1	0	0	59.3675	63.1568	52.8923	7.82876	43.2174	31.1997	12.2047	83.7953	135.149	146.596	136.966	59.1683	118.514	97.375	64.9952	199.933	179.868	13.014	169.041	15.699	357.544	354.409	356.538	349.445	8192	-8191	8192	8192	254	
77150.562	1	1	0	0	57.7261	55.1176	57.5903	3.20517	54.7745	26.0168	8.65006	91.9646	138.952	136.793	132.736	48.4615	132.019	93.9856	66.0865	200.591	181.393	10.748	177.636	126.083	358.175	356.551	0.758	2.115	8192	-8191	8192	8192	254	
77150.609	1	1	0	0	59.1465	60.471	52.3825	3.12293	52.4507	28.4281	14.7086	80.3123	132.885	148.827	135.365	52.7452	127.788	95.7548	69.1779	205.12	187.460	8.670	169.441	20.501	351.704	355.338	358.817	355.953	8192	-8191	8192	8192	254	
77150.656	1	1	0	0	49.9534	68.0842	60.196	1.59813	52.757	22.8677	9.05373	80.0603	139.293	153.25	132.24	52.4519	128.24	95.2404	72.9038	194.822	188.035	11.337	181.160	192.709	354.095	344.704	17.278	358.313	8192	-8191	8192	8192	254	
77150.727	1	1	0	0	51.0673	55.3368	58.6312	3.22038	50.1096	28.1202	9.21826	76.6785	133.856	144.558	137.062	53.1635	129.389	92.0288	65.2933	198.51	179.397	16.149	178.894	246.828	355.270	1.831	356.036	354.417	8192	-8191	8192	8192	254	
77150.773	1	1	0	0	60.6055	62.5231	57.3197	6.22886	50.0527	23.7996	7.47576	76.05	135.457	145.745	143.947	48.5721	125.356	94.0481	68.4712	191.779	174.861	10.215	181.631	323.941	352.935	5.122	16.990	351.251	8192	-8191	8192	8192	254	
77150.820	1	1	0	0	53.9533	56.821	55.8341	0.780605	55.6558	24.7938	8.44363	85.4783	139.668	145.851	135.288	50.75	130.447	89.3702	69.0433	195.952	184.524	6.603	178.421	97.674	355.101	10.191	38.052	358.867	8192	-8191	8192	8192	254	
77150.875	1	1	0	0	65.1623	53.6213	45.2719	3.4074	57.1508	29.7704	4.16684	79.894	129.933	140.971	128.096	50.6635	132.082	94.1923	67.1058	195.606	182.357	21.575	185.195	302.749	354.967	357.333	27.641	358.136	8192	-8191	8192	8192	254	
77150.922	1	1	0	0	64.4905	56.8205	57.6351	2.54645	50.1963	30.2666	4.86905	97.6909	138.909	141.865	129.5	53.75	121.293	98.5721	65.1442	206.26	179.412	354.779	179.405	109.813	354.719	4.834	29.702	355.210	8192	-8191	8192	8192	254	
77150.969	1	1	0	0	58.3111	60.1325	54.2793	1.08056	44.0924	31.7791	10.9692	84.7609	142.337	144.125	133.601	46.5577	122.332	92.6202	68.6154	192.332	180.191	15.361	188.974	205.797	358.666	352.568	28.055	351.951	8192	-8191	8192	8192	254	
77151.039	1	1	0	0	61.1599	51.3544	56.0092	2.99236	54.0863	23.0145	10.4055	82.4035	137.663	141.659	136.538	49.5	138.197	93.7163	65.4471	194.394	184.255	10.094	171.550	91.006	1.490	346.229	348.380	359.699	8192	-8191	8192	8192	254	
77151.086	1	1	0	0	56.2581	60.8901	54.1188	7.59264	55.0839	21.3075	7.04686	78.8183	134.668	142.736	132.096	55.4712	125.264	91.7212	65.6971	194.543	184.737	10.047	187.658	108.246	0.799	353.229	2.543	348.513	8192	-8191	8192	8192	254	
77151.133	1	1	0	0	58.5918	57.384	54.8906	6.68387	49.9184	27.0039	3.24659	77.9385	137.74	139.995	128.38	48.7308	121.471	86.3077	61.9663	186.495	186.881	15.449	173.921	279.725	356.647	1.165	276.293	354.197	8192	-8191	8192	8192	254	
77151.188	1	1	0	0	49.4648	53.8182	43.9548	4.36263	49.8482	22.6852	10.3209	73.9119	135.457	145.332	127.923	49.6298	121.226	90.4615	66.2692	186.976	192.838	6.836	177.032	241.163	352.353	4.247	351.816	354.897	8192	-8191	8192	8192	254	
77151.234	1	1	0	0	58.3163	51.848	51.8144	3.32559	54.5379	21.5543	5.48944	78.4635	133.13	139.88	132.216	48.8173	120.058	91.1779	60.2885	191.442	185.536	1.370	181.243	198.463	355.503	5.603	17.624	352.166	8192	-8191	8192	8192	254	
77151.281	1	1	0	0	64.7528	61.5027	62.9268	9.31226	52.4358	26.3177	5.9556	78.0878	135.476	146.562	132.856	48.476	118.678	91.101	62.5433	187.697	179.946	8.360	181.228	320.256	354.630	358.029	31.849	359.998	8192	-8191	8192	8192	254	
77151.281	1	1	0	0	59.9747	54.8136	59.4991	3.01409	53.3009	29.8737	13.6665	86.1714	138.798	139.938	146.553	55.6058	127.25	99.1442	64.8894	202.505	176.630	6.301	183.289	85.405	2.611	358.086	27.641	358.562	8192	-8191	8192	8192	254	
77151.328	1	1	0	0	62.9633	53.299	47.3141	1.95516	59.5891	37.3681	8.64529	75.3907	150.202	146.601	137.822	55.0481	132.692	107.764	78.6538	207.202	180.240	5.134	173.501	248.665	0.570	2.244	39.413	350.639	8192	-8191	8192	8192	254	
77151.375	1	1	0	0	59.6942	59.2924	44.4573	5.15501	52.6568	25.6785	11.4809	80.0018	150.798	166.793	153.01	70.4904	143.582	105.923	83.0673	210.308	176.304	14.368	195.460	239.286	341.731	356.820	352.094	356.994	8192	-8191	8192	8192	254	
77151.422	1	1	0	0	61.4664	58.0029	52.3591	6.1415	47.0144	27.9056	16.7564	75.7039	159.481	165.385	152.019	75.5385	153.144	116.197	90.5481	213.447	189.697	11.051	177.527	296.492	359.500	2.982	357.479	353.771	8192	-8191	8192	8192	254	
77151.492	1	1	0	0	60.0258	52.5981	44.9627	6.08613	47.2972	27.8359	12.8039	91.0269	162.938	169.144	153.745	74.8413	159.226	112.663	97.3365	240.385	183.747	10.777	169.221	21.565	2.768	359.296	359.086	348.066	8192	-8191	8192	8192	254	
77151.547	1	1	0	0	59.052	62.5733	51.1794	7.0033	49.1379	28.9116	12.9473	86.8453	161.957	181.115	166.106	82.7837	147.351	126.577	88.2212	215.611	186.602	16.071	180.263	357.755	348.710	1.001	25.229	352.916	8192	-8191	8192	8192	254	
77151.594	1	1	0	0	54.7007	57.3326	46.5982	1.0427	40.8463	31.7219	6.99691	74.4041	166.279	168.322	158.894	72.1779	151.62	123.399	89.8606	215.019	181.368	15.980	175.796	168.485	347.837	349.570	258.288	351.752	8192	-8191	8192	8192	254	
77151.641	1	1	0	0	61.2794	60.9668	56.215	8.20778	55.7691	22.9295	0.749271	86.795	158.837	172.038	162.986	78.7404	149.25	119.635	88.6971	228.712	175.325	5.680	176.000	160.197	344.590	26.654	281.127	350.391	8192	-8191	8192	8192	254	
77151.688	1	1	0	0	65.1931	55.4575	51.3793	3.43718	50.3264	35.4051	6.91496	80.4546	161.163	175.12	159.649	81.9904	146.952	120.543	91.1827	225.798	176.531	4.822	183.525	281.975	351.765	353.869	330.472	358.906	8192	-8191	8192	8192	254	
77151.734	1	1	0	0	62.839	54.4363	39.3488	7.41103	49.83	30.6564	13.2754	90.7547	162.447	176.514	155.279	79.851	150.553	129.899	92.6731	224.087	185.939	13.655	186.473	56.452	347.891	1.313	327.145	356.635	8192	-8191	8192	8192	254	
77151.805	1	1	0	0	64.673	49.3292	53.9487	2.26881	56.5269	35.8263	13.8351	72.2239	162.471	162.197	165.774	71.75	144.75	120.712	89.7452	209.625	176.197	18.111	175.897	130.697	3.809	3.169	342.068	353.309	8192	-8191	8192	8192	254	
77151.859	1	1	0	0	63.9227	56.3785	64.3703	7.21296	57.1356	28.0089	4.18205	85.7481	160.591	173.812	154.788	68.8558	151.447	118.192	87.8077	218.962	195.413	7.110	183.626	358.311	354.896	354.149	37.255	347.100	8192	-8191	8192	8192	254	
77151.906	1	1	0	0	49.3049	56.2548	58.7534	1.46017	48.1521	24.9202	8.4439	82.4485	149.726	163.337	154.356	68.2596	141.716	115.894	83.3125	208.947	184.089	10.393	178.388	215.512	345.951	3.922	314.243	348.161	8192	-8191	8192	8192	254	
77151.953	1	1	0	0	53.696	56.4863	55.6617	8.98091	44.1546	32.916	7.37608	81.3845	152.822	160.721	141.038	65.9712	126.981	97.8125	74.0529	199.923	179.373	16.440	178.902	81.771	3.179	358.570	25.441	353.892	8192	-8191	8192	8192	254	
77152.000	1	1	0	0	60.764	69.5793	50.0765	1.09601	53.6465	28.4323	7.17192	73.4999	153.851	147.615	140.644	56.1635	132.12	97.8317	76.2356	194.683	177.486	11.181	184.703	198.490	344.695	357.267	339.450	358.639	8192	-8191	8192	8192	254	
77152.047	1	1	0	0	60.0561	51.594	49.3824	3.68668	46.6475	30.7671	12.141	84.0643	139.51	143.51	129.135	51.5288	125.245	91.4856	60.1058	194.957	188.088	19.221	177.031	122.699	357.986	12.058	0.809	353.788	8192	-8191	8192	8192	254	
77152.047	1	1	0	0	63.3396	57.571	48.4649	2.81461	56.7746	33.4213	6.7215	80.2679	140.88	139.692	129.933	50.1875	122.909	97.0192	65.2596	184.894	182.561	359.094	185.770	111.581	353.342	8.191	329.860	347.545	8192	-8191	8192	8192	254	
77152.094	1	1	0	0	59.3277	64.2129	54.9619	0.383197	49.5888	39.6861	9.53044	88.5018	130.846	142.221	128.115	46.8269	116.144	94.4087	58.3173	202.938	180.277	14.867	173.176	307.386	354.831	345.166	1.023	347.769	8192	-8191	8192	8192	254	
77152.141	1	1	0	0	60.6914	57.4778	56.1769	6.15703	51.1376	28.3478	10.3457	89.7461	135.63	139.428	130.971	49.0721	124.865	89.5865	63.6779	199.548	184.845	8.629	177.571	75.807	358.423	358.036	13.650	4.107	8192	-8191	8192	8192	254	
77152.195	1	1	0	0	59.4519	55.6457	54.0273	2.11174	49.7256	30.2027	8.55878	80.5096	135.091	143.596	128.298	48.4663	117.76	92.5481	62.2548	191.428	183.284	17.646	175.260	350.271	1.543	352.378	15.106	349.553	8192	-8191	8192	8192	254	
77152.266	1	1	0	0	51.6518	58.4231	61.4317	5.58201	50.8937	26.1428	10.4334	79.5995	132.014	143.538	132.308	49.8462	120.207	84.1731	66.2163	195.154	174.976	10.526	186.475	116.635	353.532	9.357	349.253	347.956	8192	-8191	8192	8192	254	
77152.312	1	1	0	0	59.1542	53.1595	51.0488	5.34792	54.9021	29.2944	6.95885	87.0954	133.115	140.322	126.827	50.5673	128.683	94.3173	63.6394	205.264	177.755	15.653	183.306	236.521	353.712	351.879	308.642	346.204	8192	-8191	8192	8192	254	
77152.359	1	1	0	0	57.807	53.3682	56.2065	4.95331	50.7828	29.5069	9.85363	85.2632	137.923	138.885	133.476	45.4519	123.255	93.7019	63.8173	194.255	180.809	16.003	175.230	120.189	356.956	352.741	17.301	351.830	8192	-8191	8192	8192	254	
77152.406	1	1	0	0	62.7046	59.2483	47.6779	7.46355	50.5344	30.5218	13.5867	83.1997	139.837	140.938	127.769	50.0769	120.26	90.4375	62.024	188.947	184.064	5.933	170.499	116.618	348.535	6.238	356.695	356.583	8192	-8191	8192	8192	254	
77152.453	1	1	0	0	60.1024	56.5201	55.3727	5.2232	51.4289	31.3747	8.47257	90.9088	133.861	148.399	137.139	48.9087	120.74	91.5913	59.5385	191.25	185.567	7.306	168.821	193.551	352.532	357.997	20.781	356.617	8192	-8191	8192	8192	254	
77152.508	1	1	0	0	61.2344	68.0171	53.5511	2.6463	49.1399	28.6956	9.22877	73.1297	133.24	144.572	137.038	51.0865	122.159	88.601	57.3077	184.606	184.291	13.336	172.305	134.945	339.581	353.796	351.585	356.720	8192	-8191	8192	8192	254	
77152.555	1	1	0	0	57.0742	64.493	58.2363	1.25	49.5097	29.7016	13.4006	82.1085	130.197	143.149	136.096	50.0337	120.606	88.9038	58.6394	195.688	180.135	8.828	176.942	22.697	1.694	2.849	33.257	350.565	8192	-8191	8192	8192	254	
77152.602	1	1	0	0	58.0696	62.8058	45.6003	9.61105	58.7582	24.0574	5.42082	79.669	139.178	141.683	130.25	48	127.385	93.1875	56.7885	188.63	177.377	3.262	167.347	191.650	347.215	355.064	2.405	355.045	8192	-8191	8192	8192	254	
77152.672	1	1	0	0	49.5841	68.0095	52.4679	0.0931551	45.1399	20.2605	6.21741	81.9486	133.125	140.784	128.327	49.9663	116.947	89.0481	65.5385	200.356	176.653	11.969	184.208	296.075	351.199	14.419	341.600	349.841	8192	-8191	8192	8192	254	
77152.719	1	1	0	0	51.379	55.2414	47.4024	1.32907	55.2704	27.3222	14.0291	77.3262	129.957	142.341	128.019	48.3942	122.135	84.7596	65.8125	194	183.733	10.499	176.314	215.103	352.292	359.356	54.131	345.211	8192	-8191	8192	8192	254	
77152.766	1	1	0	0	62.1756	64.0949	59.3213	6.62918	61.5633	27.6425	13.5019	82.0065	135.082	144.856	129.13	46.7115	131.87	89.9231	65.476	192.327	184.872	7.397	185.897	199.491	358.554	15.493	18.436	359.878	8192	-8191	8192	8192	254	
77152.812	1	1	0	0	53.6414	58.1157	53.5153	3.11863	48.9126	19.6985	7.24623	89.3736	136.389	138.904	131.072	48.0673	131.154	87.2115	61.6683	192.63	180.071	11.161	184.081	168.755	356.258	16.405	313.360	358.760	8192	-8191	8192	8192	254	
77152.812	1	1	0	0	61.4175	64.8993	57.7694	3.54197	48.8366	22.94	11.3471	85.2558	139.178	143.202	130.476	49.4471	123.947	86.851	66.5192	193.38	175.257	9.213	182.495	321.186	343.835	349.980	5.857	353.545	8192	-8191	8192	8192	254	
77152.867	1	1	0	0	55.0864	56.6792	47.8215	3.91084	48.5511	19.7477	15.3991	88.4714	135.678	144.596	131.13	51.024	121.851	90.4567	62.2308	194.495	189.175	9.591	173.911	114.572	349.208	329.628	345.005	353.641	8192	-8191	8192	8192	254	
77152.938	1	1	0	0	66.8814	61.5845	63.756	3.0879	40.0913	26.4018	11.2544	80.9201	142.212	141.976	131.788	51.4375	118.308	88.9471	61.0433	189.543	188.522	8.870	183.052	291.350	354.754	7.815	336.934	351.858	8192	-8191	8192	8192	254	
77152.984	1	1	0	0	52.5278	65.5068	54.9563	5.38798	55.1859	24.054	9.18116	88.3452	131.183	139.731	133.399	47.4712	120.423	90.226	58.5817	194.5	178.502	8.126	182.576	81.708	353.041	0.202	351.896	348.485	8192	-8191	8192	8192	254	
77153.031	1	1	0	0	70.92	60.501	48.6835	1.4244	61.5115	28.7161	14.2676	84.693	138.861	145.543	126.438	49.4615	126.428	89.5865	62.649	196.466	175.364	2.606	178.498	140.275	347.896	1.858	336.907	355.340	8192	-8191	8192	8192	254	
77153.078	1	1	0	0	62.107	56.6733	51.5872	1.98981	56.1943	30.2924	11.3254	87.4718	137.471	136.803	134.659	48.9615	123.409	87.5913	62.1202	199.375	174.596	0.206	187.460	349.786	354.716	2.109	323.831	356.269	8192	-8191	8192	8192	254	
77153.133	1	1	0	0	55.9043	45.0285	51.1365	3.50489	40.303	34.2649	9.65028	82.6377	131.861	139.538	122.091	48.0913	119.428	95.4375	62.7356	191.683	185.182	9.416	171.752	151.076	10.859	358.289	20.002	356.397	8192	-8191	8192	8192	254	
77153.180	1	1	0	0	53.0146	57.056	44.1794	5.29986	57.9322	28.6432	7.01362	85.3003	134.591	139.269	128.966	47.3173	130.264	93.4519	61.2837	198.817	175.035	14.558	172.681	297.767	0.361	0.379	356.860	351.285	8192	-8191	8192	8192	254	
77153.227	1	1	0	0	59.3442	50.9427	44.5712	1.65017	46.9804	28.8471	10.0703	94.475	134.409	146.683	126.812	50.9663	122.538	90.3173	62.4856	196.125	183.362	12.490	181.180	2.861	347.684	0.080	24.554	354.342	8192	-8191	8192	8192	254	
77153.273	1	1	0	0	60.5518	59.3752	53.496	5.46058	45.2599	28.728	9.09401	82.8138	134.543	139.591	127.043	49.9808	116.962	88.5337	61.4952	197.558	182.822	10.795	180.325	37.647	352.385	10.897	345.908	352.879	8192	-8191	8192	8192	254	
77153.320	1	1	0	0	60.4778	59.6251	59.2237	6.18077	60.5859	26.3462	12.6075	75.2344	135.957	145.875	137.375	44.7548	124.034	95.5433	63.0529	190.192	189.920	3.604	178.052	215.312	357.428	0.690	3.081	358.486	8192	-8191	8192	8192	254	
77153.367	1	1	0	0	63.4134	56.6129	57.5784	5.50554	48.5343	25.7227	8.04295	80.071	140.231	142.428	130.332	50.8029	117.471	92.0577	66.125	193.125	177.628	9.517	174.788	88.926	345.451	8.470	349.147	359.366	8192	-8191	8192	8192	254	
77153.438	1	1	0	0	58.4027	53.0034	59.0517	6.93793	49.3364	31.7205	10.8528	83.5036	130.24	134.822	134.577	50.0817	121.918	90.7212	62.5144	197.567	180.194	15.153	174.097	56.870	359.164	355.192	8.776	358.813	8192	-8191	8192	8192	254	
77153.484	1	1	0	0	51.3914	52.0086	51.0729	2.32766	48.5569	21.6583	10.6926	80.6262	133.091	136.534	129.74	48.0625	121.654	91.1923	66.2404	187.264	183.013	9.569	183.975	126.055	356.841	7.560	339.588	350.575	8192	-8191	8192	8192	254	
77153.539	1	1	0	0	60.2383	58.9346	53.3995	7.17758	46.8556	37.7772	10.273	87.7158	133.625	146.928	125.99	49.5625	129.899	90.7163	67.8077	191.288	183.989	14.161	176.875	73.572	351.007	2.378	342.856	354.403	8192	-8191	8192	8192	254	
77153.586	1	1	0	0	60.2078	58.2167	61.7371	6.7942	61.7747	27.7893	11.4133	83.5985	133.649	145.327	123.615	51.0577	120.264	87.0433	67.5192	196.808	180.562	5.428	186.812	279.295	354.893	2.190	36.599	349.694	8192	-8191	8192	8192	254	
77153.586	1	1	0	0	55.6549	64.4497	59.2319	6.88564	50.4314	24.5866	7.13173	85.2542	133.428	144.139	126.014	50.4327	115.827	88.8846	59.7067	190.481	176.243	1.421	179.315	332.317	353.002	358.087	15.052	0.629	8192	-8191	8192	8192	254	
77153.633	1	1	0	0	60.7067	63.4543	61.4792	1.74549	50.6409	31.0286	7.6521	89.1439	137.625	142.447	130.981	47.6923	125.221	96.8029	64.9279	195.803	184.686	18.538	177.621	354.719	352.289	359.599	315.285	351.355	8192	-8191	8192	8192	254	
77153.680	1	1	0	0	56.0221	62.2513	63.6595	6.81585	44.9645	28.4574	7.20638	88.0295	131.572	147.466	132.606	48.0192	122.221	88.7067	61.7596	196.837	175.933	13.321	178.866	95.375	358.191	2.222	54.415	354.779	8192	-8191	8192	8192	254	
77153.727	1	1	0	0	63.8008	53.8535	57.2134	4.14784	54.2205	27.4517	5.22824	83.0906	133.029	132.442	123.212	52.5625	121.519	89.1635	62.7885	194.13	184.053	15.379	180.740	246.142	345.511	348.879	3.551	2.510	8192	-8191	8192	8192	254	
77153.797	1	1	0	0	60.7005	53.2129	53.1114	4.90358	59.8695	26.4607	14.3056	71.9655	133.442	137.894	128.649	48.5529	129.332	92.9952	63.2356	186.327	177.651	17.304	174.488	340.852	343.680	4.251	13.922	1.064	8192	-8191	8192	8192	254	
77153.852	1	1	0	0	58.0385	62.0026	53.3631	2.43468	53.5793	28.6614	6.71499	75.1038	133.822	142.837	137.375	48.4038	123.034	95.0337	63.226	185.519	185.964	14.323	176.836	236.569	359.750	11.336	344.291	357.097	8192	-8191	8192	8192	254	
77153.898	1	1	0	0	63.0196	54.695	50.0526	3.62976	60.5585	29.7653	7.46522	89.9462	136.726	147.596	127.418	52.7067	122.183	93.5913	67.0096	195.327	184.732	12.102	174.407	273.943	356.561	344.363	347.976	359.367	8192	-8191	8192	8192	254	
77153.945	1	1	0	0	63.8211	60.4304	56.0245	2.39609	51.928	25.1603	11.5864	80.545	134.587	144.788	130.024	45.7067	125.51	92.6875	62.7019	190.524	178.413	17.533	170.681	247.188	356.877	347.760	19.853	351.536	8192	-8191	8192	8192	254	
77153.992	1	1	0	0	66.2207	53.1382	58.0941	3.26039	58.9324	28.4446	9.9146	86.3295	137.913	133.231	131.812	50.0577	127.404	85.3846	57.9038	189.279	184.959	11.177	180.373	105.335	357.290	357.184	351.766	357.269	8192	-8191	8192	8192	254	
77154.039	1	1	0	0	66.8771	54.0005	49.24	2.09112	42.8856	16.5521	9.01261	85.3965	141.577	139.135	129.043	50.4519	114.51	88.3894	65.2788	195.572	182.109	18.140	173.013	46.388	3.770	356.561	326.554	2.049	8192	-8191	8192	8192	254	
77154.109	1	1	8	0	53.9548	54.7707	50.4326	1.39672	54.3612	23.8201	6.83782	85.9815	130.736	137.817	125.793	49.1779	120.99	92.4856	63.8846	192.654	187.452	6.714	179.157	332.815	352.915	352.962	75.189	357.069	8192	-8191	8192	8192	254	
77154.156	1	1	0	0	62.5613	55.7886	50.0184	0.973488	52.964	23.4819	10.0879	90.984	132.288	146.889	126.774	47.6202	118.192	89.2115	64.1202	195.332	180.847	13.102	170.242	231.390	351.679	15.963	22.834	1.756	8192	-8191	8192	8192	254	
77154.203	1	1	0	0	56.7187	62.4319	54.0821	3.77772	52.2937	29.8778	13.7376	96.1375	130.923	142.913	130.514	48.1923	126.038	92.5337	61.0481	200.197	180.915	14.495	174.365	205.635	353.365	357.410	7.994	351.051	8192	-8191	8192	8192	254	
77154.258	1	1	0	0	60.5906	60.3497	46.8044	1.89002	43.3107	27.9046	5.77342	82.9902	134.986	147.538	126.909	47.9615	120.019	89.0385	62.0577	189.885	184.808	7.094	178.579	264.507	1.084	357.132	59.143	348.317	8192	-8191	8192	8192	254	
77154.305	1	1	0	0	51.8135	59.8107	53.2257	4.56672	53.2262	27.7392	12.7949	76.9865	130.817	146.01	132.327	50.3413	126.072	98.6442	63.3654	191.317	179.819	12.381	181.381	208.842	0.930	15.609	351.000	3.783	8192	-8191	8192	8192	254	
77154.352	1	1	0	0	61.2824	58.4206	51.672	4.26027	54.8088	21.2588	11.0621	85.0016	134.293	143.317	127.712	47.4712	128.678	90.8077	60.0481	197.024	177.964	17.755	175.593	227.913	359.690	343.909	46.555	353.442	8192	-8191	8192	8192	254	
77154.352	1	1	0	0	55.7699	57.4362	50.9195	3.9615	55.3224	29.805	15.7506	83.6693	129.149	136.115	130.447	49.2644	127.149	82.9183	63.0385	194.115	176.839	3.774	186.123	268.596	355.589	354.029	345.822	351.901	8192	-8191	8192	8192	254	
77154.398	1	1	0	0	58.3812	57.7691	60.2455	3.06852	51.1194	21.9344	13.3262	84.9866	129.865	143.591	128.029	48.4183	122.596	89.8077	67.4663	195.135	175.942	1.901	182.883	202.757	2.179	351.049	33.421	348.381	8192	-8191	8192	8192	254	
77154.469	1	1	0	0	50.166	61.5267	58.3596	3.6561	48.2394	24.5156	9.06242	89.3401	132.76	142.784	133.543	50.4519	123.788	92.2163	60.9135	197.139	187.391	6.191	187.156	231.444	347.285	355.636	328.989	359.247	8192	-8191	8192	8192	254	
77154.523	1	1	0	0	57.4483	66.2312	48.9099	0.695738	54.7347	13.2771	2.89074	80.174	138.731	146.048	128.625	46.4471	124.096	87.7548	62.0096	187.163	183.308	10.037	181.673	196.556	4.239	352.263	22.571	0.624	8192	-8191	8192	8192	254	
77154.570	1	1	0	0	59.6625	49.2188	53.4152	5.56886	54.183	24.4683	11.2122	84.6117	136.606	138.264	132.428	47.1923	130.707	92.6538	63.6731	194.808	180.561	10.398	177.087	327.946	356.473	357.886	1.408	351.875	8192	-8191	8192	8192	254	
77154.617	1	1	0	0	59.2246	54.0015	56.3128	0.999494	45.3942	24.3545	14.0163	83.5407	132.62	142.034	131.909	51.5721	124.712	92.7115	63.4663	191.486	185.650	8.226	181.330	263.627	350.538	357.493	9.805	352.161	8192	-8191	8192	8192	254	
77154.664	1	1	0	0	65.5159	51.5073	54.6821	4.9332	52.7906	29.7108	9.71573	85.771	140.255	138.356	128.865	48.601	122.442	94.6971	66.351	186.125	177.627	5.547	179.522	181.068	347.619	10.451	335.470	356.839	8192	-8191	8192	8192	254	
77154.711	1	1	0	0	49.2621	65.7903	58.9202	5.60196	48.5356	26.9628	1.99939	84.9293	138.346	143.293	127.317	51.0048	120.024	92.7308	62.6827	192.51	187.772	7.888	179.573	250.188	356.787	350.423	98.437	1.782	8192	-8191	8192	8192	254	
77154.758	1	1	0	0	54.8282	44.6737	60.1286	5.81384	47.7675	24.1354	5.53357	85.6282	134.567	138.197	132.389	49.7308	121.514	94.1923	62.3317	195.75	176.819	10.580	178.106	95.238	352.921	358.121	353.097	351.621	8192	-8191	8192	8192	254	
77154.812	1	1	0	0	52.5793	55.2088	52.7451	8.09929	44.8365	19.8222	10.8298	82.4351	132.548	143.058	128.962	48.9375	125.216	91.4471	61.1875	191.784	175.756	8.262	181.765	256.614	354.042	353.693	356.333	348.532	8192	-8191	8192	8192	254	
77154.859	1	1	0	0	57.6569	56.023	48.1555	1.62994	59.4054	28.8464	12.202	81.3213	135.793	143.346	122.707	49.7019	120.25	90.2452	63.149	184.962	175.839	8.107	171.434	80.847	0.382	350.576	351.312	352.612	8192	-8191	8192	8192	254	
77154.906	1	1	0	0	60.694	45.6094	57.8668	4.19044	47.2836	30.6447	12.1145	88.6124	139.913	144.37	130.409	50.4183	120.774	93.25	59.9952	198.764	187.288	15.253	186.467	301.028	346.876	356.890	343.508	353.015	8192	-8191	8192	8192	254	
#DATA ENDS
