BOXY.EXE: ISS Imagent Data Acquisition Program Version 0.82
Ascii Record File

#ACQ INFORMATION
1  Detector Channels 
8  External MUX Channels 
4  Auxiliary Analog Channels 
5000  Waveform (CCF) Frequency (Hz)
4  Waveforms Skipped 
26  Waveforms Averaged 
1  Cycles Averaged 
8  Acquisitions per Waveform 
1  Auxiliary Digital Channels 

#Data Update Rate
20.8333  Update Rate (Hz) 
FALSE -- Use Phase Reference
FALSE -- Use Continuous Phase Reference
FALSE -- Use Intensity Reference
FALSE -- Use Continuous Intensity Reference

#FILE INFORMATION
TRUE -- External MUX Channel results are PARSED.
FALSE -- AC DC and Phase are NOT grouped.
TRUE -- Companion Program Settings File CREATED.
FALSE -- AC data not excluded
FALSE -- DC data not excluded
FALSE -- Phase data not excluded
FALSE -- Auxillary Chn. data not excluded
Tab delimiters

#CALIBRATION STATE
FALSE -- Waveform Calibration Values NOT applied.

#WAVELENGTH DATA
Wavelength Index	Wavelength	Comp1 ExtCoef	Comp2 ExtCoef	Comp3 ExtCoef	Comp4 ExtCoef	BackGround	Weight	

1	6.600e+02	1.486e+00	3.844e+00	1.000e+00	1.000e+00	1.890e-02	1.000e+00	
2	6.900e+02	2.315e+00	1.792e+00	1.000e+00	1.000e+00	2.180e-02	1.000e+00	
3	7.500e+02	1.000e+00	1.000e+00	1.000e+00	1.000e+00	3.010e-03	1.000e+00	
4	7.750e+02	1.000e+00	1.000e+00	1.000e+00	1.000e+00	3.240e-03	1.000e+00	
5	7.850e+02	1.000e+00	1.000e+00	1.000e+00	1.000e+00	1.660e-02	1.000e+00	
6	8.000e+02	1.000e+00	1.000e+00	1.000e+00	1.000e+00	1.480e-02	1.000e+00	
7	8.250e+02	1.000e+00	1.000e+00	1.000e+00	1.000e+00	1.620e-02	1.000e+00	
8	8.300e+02	1.000e+00	1.000e+00	1.000e+00	1.000e+00	2.620e-02	1.000e+00	


#AUX CALIBRATION VALUES
Val Type	aux-1	aux-2	aux-3	aux-4	

Term	0.0000e+00	0.0000e+00	0.0000e+00	0.0000e+00	
Factor	1.0000e+00	1.0000e+00	1.0000e+00	1.0000e+00	


#WF CALIBRATION VALUES
A = Detector Channel
Val Type	A-AC1	A-AC2	A-AC3	A-AC4	A-AC5	A-AC6	A-AC7	A-AC8	A-DC1	A-DC2	A-DC3	A-DC4	A-DC5	A-DC6	A-DC7	A-DC8	A-Ph1	A-Ph2	A-Ph3	A-Ph4	A-Ph5	A-Ph6	A-Ph7	A-Ph8	

Term	0.00000e+00	0.00000e+00	0.00000e+00	0.00000e+00	0.00000e+00	0.00000e+00	0.00000e+00	0.00000e+00	0.00000e+00	0.00000e+00	0.00000e+00	0.00000e+00	0.00000e+00	0.00000e+00	0.00000e+00	0.00000e+00	-1.05892e+02	-9.99249e+01	-2.86485e+02	-2.62799e+02	-2.45797e+02	-2.48632e+02	-7.72400e+01	-7.86612e+01	
Factor	3.48934e-02	2.88771e-02	2.23541e-02	4.58344e-02	3.11822e-02	3.92311e-02	3.80806e-02	2.80088e-02	4.70955e+01	8.07534e+01	3.66973e+01	1.04434e+02	6.45565e+01	3.94082e+01	9.13796e+01	5.49806e+01	X	X	X	X	X	X	X	X	



#DISTANCE SETTINGS
A = Detector Channel
A-1	A-2	A-3	A-4	A-5	A-6	A-7	A-8	

1.5000e+00	1.5000e+00	1.5000e+00	1.5000e+00	1.5000e+00	1.5000e+00	1.5000e+00	1.5000e+00	



#ADDITIONAL SIGNAL INFORMATION
A = Detector Channel
Info. Type	A-1	A-2	A-3	A-4	A-5	A-6	A-7	A-8	

cal. block. ind.	1	1	1	1	1	1	1	1	
wavelength ind.	0	1	2	3	4	5	6	7	
weight	1.0000e+00	1.0000e+00	1.0000e+00	1.0000e+00	1.0000e+00	1.0000e+00	1.0000e+00	1.0000e+00	


#CALIBRATION BLOCK OPTICAL PROPS
Calib. Block Num.	WaveLen Index	Absorption	Scattering	

1	1	1.080e-01	9.000e+00	
1	2	1.300e-01	1.070e+01	
1	3	1.130e-01	9.400e+00	
1	4	1.210e-01	1.000e+01	
1	5	1.080e-01	9.000e+00	
1	6	1.300e-01	1.070e+01	
1	7	1.150e-01	9.600e+00	
1	8	1.330e-01	1.090e+01	

Calib. Block Num.	WaveLen Index	Absorption	Scattering	

2	1	1.120e-01	4.400e+00	
2	2	1.200e-01	5.700e+00	
2	3	1.140e-01	4.600e+00	
2	4	1.160e-01	5.100e+00	
2	5	1.120e-01	4.400e+00	
2	6	1.200e-01	5.700e+00	
2	7	1.150e-01	4.800e+00	
2	8	1.210e-01	6.000e+00	

Calib. Block Num.	WaveLen Index	Absorption	Scattering	

3	1	9.300e-02	8.700e+00	
3	2	1.010e-01	1.040e+01	
3	3	9.500e-02	9.000e+00	
3	4	9.700e-02	9.600e+00	
3	5	9.300e-02	8.700e+00	
3	6	1.010e-01	1.040e+01	
3	7	9.600e-02	9.300e+00	
3	8	1.030e-01	1.080e+01	

Calib. Block Num.	WaveLen Index	Absorption	Scattering	

4	1	1.000e-01	1.000e+01	
4	2	1.000e-01	1.000e+01	
4	3	1.000e-01	1.000e+01	
4	4	1.000e-01	1.000e+01	
4	5	1.000e-01	1.000e+01	
4	6	1.000e-01	1.000e+01	
4	7	1.000e-01	1.000e+01	
4	8	1.000e-01	1.000e+01	



#DATA BEGINS
time	group	step	mark	flag	A-AC1	A-AC2	A-AC3	A-AC4	A-AC5	A-AC6	A-AC7	A-AC8	A-DC1	A-DC2	A-DC3	A-DC4	A-DC5	A-DC6	A-DC7	A-DC8	A-Ph1	A-Ph2	A-Ph3	A-Ph4	A-Ph5	A-Ph6	A-Ph7	A-Ph8	aux-1	aux-2	aux-3	aux-4	digaux	

77626.695	1	1	0	768	4493.1	4277.1	9.00696	3367.13	1614.89	509.857	4786.09	5.20019	7274.32	6449.85	51.9087	4925.38	2552.02	884.99	8331.62	42.7019	208.900	19.629	200.770	196.087	200.084	204.184	196.195	34.697	8192	-8191	8192	8192	254	
77626.742	1	1	0	0	4498.79	4714.12	4249.62	10.7033	3534.27	1596.42	483.362	4799.86	6589.23	7531.06	6411.16	53.4327	5000.88	2535.16	888.418	8368.27	21.062	209.508	18.950	192.049	195.857	199.376	203.945	196.743	8192	-8191	8192	8192	254	
77626.797	1	1	0	0	4489.79	4642.59	4234.38	11.2129	3374.01	1604.36	500.377	4873.74	6630.94	7529.67	6399.88	51.8125	4934.95	2534.3	880.774	8407.79	20.795	208.484	19.229	205.934	195.460	199.843	202.225	196.409	8192	-8191	8192	8192	254	
77626.844	1	1	0	0	4495.5	4692.64	4263.08	12.1666	3436.35	1603.34	506.69	4976.67	6609.93	7630.85	6438.32	53.4279	4955.98	2517.93	864.861	8560.44	20.436	209.370	19.937	228.227	196.097	199.276	204.414	196.921	8192	-8191	8192	8192	254	
77626.914	1	1	0	0	4454.21	4719.32	4239.53	3.40278	3466.62	1639.51	499.026	4993.7	6616.1	7618.5	6439	52.625	4969.74	2553.16	896.139	8649.29	20.780	208.869	19.116	198.614	196.258	200.331	203.186	195.718	8192	-8191	8192	8192	254	
77626.961	1	1	0	0	4574.05	4714.07	4330.07	3.29466	3479.87	1617.63	501.505	5067.96	6677.01	7586.46	6541.05	55.9663	5050.16	2571.66	887.226	8762.15	21.432	209.272	19.143	236.738	195.472	199.616	200.546	195.887	8192	-8191	8192	8192	254	
77627.008	1	1	0	0	4587.71	4827.93	4242.37	3.84107	3470.36	1631.83	485.691	5050.61	6756.24	7712.31	6503.11	55.9279	5014.08	2535.74	875.192	8809.44	20.435	208.925	19.074	205.230	197.156	201.209	202.556	195.727	8192	-8191	8192	8192	254	
77627.055	1	1	0	0	4562.73	4718.1	4281.25	5.41319	3452.71	1591.76	512.318	4965.15	6743.59	7624.56	6495.24	57.1779	4998.96	2578.45	901.5	8703.83	21.203	208.305	20.336	204.876	195.789	200.734	203.146	196.864	8192	-8191	8192	8192	254	
77627.109	1	1	0	0	4534.04	4643.15	4268.25	3.87314	3449.05	1598.51	504.258	4974.31	6678.59	7560.02	6517.63	56.6587	5039.28	2569.84	882.803	8602.85	21.150	208.763	19.415	239.278	196.139	200.402	205.212	196.832	8192	-8191	8192	8192	254	
77627.156	1	1	0	0	4444.76	4727.14	4287.11	3.38234	3487.63	1619.49	515.921	4997.68	6681.18	7685.5	6491.5	57.4519	5044.31	2559.41	901.072	8546.49	20.276	209.032	19.635	68.903	195.583	199.258	203.619	196.380	8192	-8191	8192	8192	254	
77627.203	1	1	0	0	4555.22	4779.31	4332.95	7.67103	3467.67	1663.34	493.402	4911.62	6728.83	7724.61	6543.54	56.0865	5014.85	2581.33	895.279	8529.16	20.475	209.595	19.601	170.935	195.996	201.105	201.300	196.964	8192	-8191	8192	8192	254	
77627.250	1	1	0	0	4499.67	4781.21	4235.08	7.78504	3448.12	1646.63	503.957	4923.06	6635.6	7714.45	6466.77	57.9712	5004.72	2590.34	877.841	8580.78	21.689	209.292	19.751	194.148	196.041	200.605	201.406	197.184	8192	-8191	8192	8192	254	
77627.320	1	1	0	0	4583.35	4782.6	4271.4	4.16703	3425.15	1664.05	548.671	5005.27	6718.22	7700.26	6503.18	50.1106	4974.82	2600.79	911.106	8661.33	20.846	208.314	19.385	232.836	196.569	199.841	202.590	195.668	8192	-8191	8192	8192	254	
77627.367	1	1	0	0	4544.09	4783.17	4233.37	7.8708	3517.69	1618.66	531.194	5014.56	6692.15	7694	6458.61	56.6106	5036.6	2569.28	917.423	8632.78	20.577	209.473	18.860	203.463	196.495	199.486	203.109	196.039	8192	-8191	8192	8192	254	
77627.414	1	1	0	0	4485.32	4820.98	4288.48	2.42146	3415.58	1654.76	528.484	5017.63	6679.72	7695.58	6504.39	53.7788	4993.09	2570.29	935.692	8677.11	20.976	209.290	19.638	249.202	196.310	199.787	204.739	197.119	8192	-8191	8192	8192	254	
77627.469	1	1	0	0	4521.58	4737.38	4273.76	2.57802	3474.63	1598.19	516.958	4941.93	6708.99	7697.43	6525.17	58.7067	4994.82	2541.31	904.447	8611.98	20.398	209.889	20.153	115.890	196.586	199.013	203.714	196.571	8192	-8191	8192	8192	254	
77627.469	1	1	0	0	4539.76	4776.1	4238.75	5.58686	3413.28	1608.32	504.545	4935.32	6690.79	7666.24	6473.04	56.1683	4974.57	2574.7	880.995	8639.16	20.571	209.204	19.368	200.823	196.629	199.858	205.306	197.341	8192	-8191	8192	8192	254	
77627.516	1	1	0	0	4588.01	4726.84	4206.83	2.92929	3504.08	1647.82	525.838	4925.76	6710.99	7650.71	6493.75	56.0962	5025.3	2582.82	899.048	8589.2	21.523	209.576	18.642	233.141	196.273	199.619	204.886	196.627	8192	-8191	8192	8192	254	
77627.562	1	1	0	0	4488.26	4711	4217.84	9.50994	3468.72	1638	519.179	5063.35	6663.1	7660.88	6493.06	57.1538	5045.11	2574.29	898.476	8659.39	21.003	209.300	19.483	212.862	196.668	199.126	203.978	196.415	8192	-8191	8192	8192	254	
77627.609	1	1	0	0	4505.02	4786.07	4244.76	2.48761	3483.16	1594.31	523.171	5019.56	6703.84	7739.28	6495.16	57.0721	5007.15	2552.07	901.101	8638.98	21.055	208.690	19.144	301.845	196.375	200.038	202.676	196.782	8192	-8191	8192	8192	254	
77627.680	1	1	0	0	4556.93	4749.05	4271.86	9.50158	3517.28	1638.34	511.883	5029.2	6739.12	7658.48	6506.52	53.8173	5022.56	2571.56	904.053	8706.71	21.132	209.304	19.716	234.599	196.556	199.959	205.022	196.585	8192	-8191	8192	8192	254	
77627.727	1	1	0	0	4563.52	4792.43	4262.62	9.57928	3514.83	1629.54	490.958	5000.6	6715.62	7725.82	6454.69	54.875	5034.05	2559.5	893.644	8722.9	21.051	210.291	19.368	218.627	195.094	199.298	200.865	196.162	8192	-8191	8192	8192	254	
77627.773	1	1	0	0	4497.39	4692.51	4300.45	4.81157	3441.51	1641.23	512.682	4988.93	6681.92	7648.63	6489.03	55.1346	4995.25	2580.91	891.159	8649.9	21.235	210.155	20.095	72.748	196.231	200.312	204.419	197.346	8192	-8191	8192	8192	254	
77627.828	1	1	0	0	4577.12	4707.36	4208.97	6.24065	3436	1604.3	520.278	5061.05	6746.37	7620.52	6458.04	50.0962	5007.61	2546.66	895.375	8690.42	20.697	209.059	19.204	235.206	196.682	200.072	202.630	196.943	8192	-8191	8192	8192	254	
77627.875	1	1	0	0	4537.66	4755.63	4267.42	11.4178	3473.49	1637.49	507.834	4981.13	6724.19	7694.66	6530.56	53.9663	5012.15	2575.24	900.582	8648.26	20.215	209.336	20.292	282.436	196.231	201.496	201.249	197.067	8192	-8191	8192	8192	254	
77627.922	1	1	0	0	4525.47	4760.02	4216.72	5.69763	3475.57	1627.91	520.235	4988.96	6710.22	7676.55	6447.14	55.2163	5011.21	2551.06	902.293	8668.04	21.187	209.283	19.352	194.431	196.904	200.800	201.102	197.036	8192	-8191	8192	8192	254	
77627.969	1	1	1	0	4582.05	4758.55	4237.54	12.9127	3505.58	1614.67	505.821	4975.15	6708.47	7652.67	6476.25	53.5433	5040.25	2551.01	892.173	8668.45	20.909	209.587	19.469	224.803	196.691	200.254	202.405	196.763	8192	-8191	8192	8192	254	
77628.016	1	1	0	0	4502.27	4796.03	4310.09	8.58179	3413.27	1622.32	518.35	5065.05	6671.91	7699.51	6517.26	52.0288	4983.12	2568.61	912.24	8719.37	20.656	208.555	19.917	218.580	196.372	200.300	199.468	197.679	8192	-8191	8192	8192	254	
77628.086	1	1	0	0	4553.45	4662	4223.67	8.65153	3430.2	1613.11	538.49	5059.73	6694.18	7626.66	6469.39	54.0385	5016.88	2553.68	902.5	8705.01	21.095	209.139	19.719	239.343	196.508	200.163	202.861	196.680	8192	-8191	8192	8192	254	
77628.133	1	1	0	0	4478.31	4757.52	4286.83	5.16741	3482.21	1625.82	497.831	5002.02	6650.18	7677.77	6542.15	57.4087	4994.91	2579.07	888.361	8664.75	20.733	209.198	20.211	184.859	196.452	199.731	204.423	195.999	8192	-8191	8192	8192	254	
77628.188	1	1	0	0	4494.54	4676.57	4287.41	12.8108	3544.63	1626.8	514.556	5001.5	6666.44	7648.56	6508.65	59.1058	5043.77	2564.78	907.846	8676.55	20.723	209.926	19.055	218.308	196.822	200.445	201.167	196.538	8192	-8191	8192	8192	254	
77628.234	1	1	0	0	4583.69	4741.15	4317.34	3.79687	3421.52	1612.26	497.321	5027.02	6706.13	7674.23	6491.68	50.9567	4984.71	2543.38	898.519	8697.36	21.130	209.270	19.646	211.225	196.009	199.781	202.639	196.926	8192	-8191	8192	8192	254	
77628.234	1	1	0	0	4541.19	4682.12	4244.61	5.28538	3452.29	1653.22	529.354	5026.32	6699.37	7596.61	6463.07	57.9615	4988.54	2561.78	909.053	8666.38	21.128	208.694	20.034	233.318	196.229	198.553	200.336	197.343	8192	-8191	8192	8192	254	
77628.281	1	1	0	0	4484.04	4713.99	4297.31	6.99815	3489.09	1645.05	516.894	4986.16	6663.98	7692.33	6540.09	54.4471	5041.07	2582.26	898.188	8639.52	20.972	209.511	18.987	223.570	196.728	199.647	205.703	196.720	8192	-8191	8192	8192	254	
77628.352	1	1	0	0	4531.81	4799.76	4310.54	7.3761	3415.2	1673.48	484.749	4991.36	6688.72	7697	6487.59	54.3606	4993.2	2583.98	890.298	8686.97	21.050	208.405	19.178	220.170	196.607	199.331	203.305	196.151	8192	-8191	8192	8192	254	
77628.398	1	1	0	0	4602.92	4797.41	4303.19	6.53113	3439.73	1650.29	493.663	4959.52	6723.78	7726.84	6547.09	54.8846	4997.62	2583.05	895.957	8629.8	20.694	208.122	19.539	175.319	196.735	200.370	202.670	196.863	8192	-8191	8192	8192	254	
77628.453	1	1	0	0	4575.75	4779.5	4278.19	1.94463	3493.25	1584.4	488.511	5013.06	6719.28	7685.99	6497.64	51.3702	4991.24	2529.64	891.889	8689.43	20.968	209.579	19.701	243.314	196.607	199.826	202.856	197.539	8192	-8191	8192	8192	254	
77628.500	1	1	0	0	4587.43	4759.6	4220.57	4.16085	3405.85	1597.18	518.427	5007.98	6707.27	7684.01	6464.37	57.1202	4951.35	2549.74	912.413	8647.19	21.535	208.951	19.923	270.739	196.238	200.382	202.343	196.544	8192	-8191	8192	8192	254	
77628.547	1	1	0	0	4563.03	4712.98	4198.5	7.26036	3428.89	1629.85	503.904	4992.02	6685.46	7690.44	6480.36	49.6923	5003.09	2602.02	894.971	8652.81	21.284	209.489	19.409	218.587	196.938	200.807	203.343	196.928	8192	-8191	8192	8192	254	
77628.594	1	1	0	0	4602.58	4741.79	4333.96	2.17689	3433.95	1620.87	511.858	5009.14	6725.2	7652.31	6510.11	54.3413	4998.16	2546.4	907.99	8646.38	20.885	208.900	20.098	221.311	196.313	199.435	203.105	197.166	8192	-8191	8192	8192	254	
77628.641	1	1	0	0	4547.73	4740.61	4377.28	3.32086	3429.53	1651.5	504.778	4989.59	6686.88	7674.61	6568.23	47.7644	5025.45	2576.9	895.058	8685.93	21.303	208.846	20.422	239.963	196.483	198.860	203.986	196.817	8192	-8191	8192	8192	254	
77628.688	1	1	0	0	4549.8	4738.46	4209.49	4.91644	3476.78	1645.33	505.098	4954.63	6684.67	7640.75	6434.25	57.5529	4989.39	2552.82	884.558	8625.33	21.229	208.911	19.089	150.761	196.004	200.449	201.432	196.975	8192	-8191	8192	8192	254	
77628.758	1	1	0	0	4541.76	4782.62	4297.76	5.38264	3515.92	1608.94	513.821	5018.63	6667.61	7655.58	6492.83	50.6442	5023.62	2538.7	896.654	8659.85	20.314	208.679	20.037	273.537	196.482	200.675	201.575	195.944	8192	-8191	8192	8192	254	
77628.812	1	1	0	0	4495.55	4781.97	4317.41	3.89109	3510.65	1626	523.535	4976.28	6700.85	7673.39	6484.95	52.5673	5053.45	2553.6	897.173	8625.64	20.481	209.130	19.967	249.100	195.804	199.572	201.555	196.590	8192	-8191	8192	8192	254	
77628.859	1	1	0	0	4549.47	4724.13	4247.11	4.6599	3484.43	1653.94	519.33	4969.63	6713.21	7662	6477.5	55.8365	5013.37	2573.8	905.702	8648.75	20.423	209.742	19.599	205.668	196.289	199.720	203.592	196.127	8192	-8191	8192	8192	254	
77628.906	1	1	0	0	4526.74	4714.23	4262.74	8.51658	3491.14	1634.51	503.345	5021.58	6702.3	7626.76	6488.43	54.0433	5025.61	2578.08	885.226	8715.19	20.167	209.168	20.779	151.589	196.030	199.640	203.986	197.598	8192	-8191	8192	8192	254	
77628.953	1	1	0	0	4511.7	4697.53	4268.98	5.50215	3540.02	1631.52	516.744	5014.48	6652.09	7607.41	6462.42	54.774	5055.29	2566.14	887.875	8694.33	21.203	209.336	19.850	191.433	196.348	199.411	203.641	196.274	8192	-8191	8192	8192	254	
77629.000	1	1	0	0	4599.85	4727.66	4301.31	7.79526	3462.34	1608.27	498.444	4974.87	6706.82	7682	6520.32	54.4615	5021.84	2557.76	896.755	8648.14	21.445	208.682	19.646	184.943	196.642	199.896	200.605	196.977	8192	-8191	8192	8192	254	
77629.000	1	1	0	0	4552.88	4762.64	4231.81	7.15615	3404.15	1607.31	495.03	5021.57	6705.65	7623.04	6467.48	51.7981	4983.62	2566.29	885.029	8686.53	20.963	208.480	19.861	245.037	196.115	201.122	202.217	197.024	8192	-8191	8192	8192	254	
77629.047	1	1	0	0	4621.45	4763.19	4329.73	3.87832	3573.56	1639.64	517.981	4925.8	6746.55	7645.31	6514.11	54.0529	5074.28	2564.22	898.365	8677.57	20.579	209.993	19.778	249.070	195.113	199.228	203.239	196.410	8192	-8191	8192	8192	254	
77629.102	1	1	0	0	4541.72	4784.7	4305.8	6.3887	3488.39	1659.75	493.719	5020.29	6690.54	7677.25	6497.42	58.3029	5006.16	2591.57	888.827	8665.24	21.113	209.963	19.145	219.833	195.934	198.718	201.155	197.168	8192	-8191	8192	8192	254	
77629.148	1	1	0	0	4529.45	4748.75	4277.22	5.34094	3450.46	1594.14	532.788	4998.41	6704.32	7697.06	6483.51	49.5673	4995.7	2534.13	911.808	8638.33	19.974	209.772	19.843	218.521	196.378	200.220	199.226	196.683	8192	-8191	8192	8192	254	
77629.219	1	1	0	0	4570.5	4725.54	4283.63	6.8835	3439.55	1614.67	509.934	5040	6689.37	7663.32	6473.54	53.8029	4983.52	2559.36	900.5	8666.37	20.849	209.776	19.790	201.147	196.442	199.054	202.090	196.812	8192	-8191	8192	8192	254	
77629.266	1	1	0	0	4516.16	4770.71	4305.35	9.4161	3429.58	1649.8	497.651	5023.59	6680.21	7662.74	6513.43	53.5096	4972.51	2589.94	887.798	8717.92	20.826	209.166	20.185	188.906	196.277	201.217	202.972	195.651	8192	-8191	8192	8192	254	
77629.312	1	1	0	0	4574.08	4757.15	4292.46	13.9303	3420.52	1640.56	498.442	4954.38	6728.23	7652.27	6545.74	51.4183	4983.37	2590.74	890.692	8639.12	20.773	208.969	19.278	203.275	196.530	198.996	202.118	196.417	8192	-8191	8192	8192	254	
77629.359	1	1	0	0	4528.31	4775.93	4274.05	12.513	3413.83	1634.46	495.561	5016.27	6675.72	7652.49	6503.01	58.4471	5006.18	2552.36	894.909	8649.57	21.240	208.694	20.186	188.862	196.869	198.420	204.910	197.618	8192	-8191	8192	8192	254	
77629.406	1	1	0	0	4501.02	4745.73	4319.45	8.15076	3490.93	1653.05	501.627	4990.3	6685.45	7703.75	6519.89	58.2356	5028.38	2576.72	874.216	8625.38	20.922	208.711	19.288	187.956	196.862	200.075	202.233	196.530	8192	-8191	8192	8192	254	
77629.453	1	1	0	0	4576.44	4764.98	4302.04	14.3304	3532.88	1669.27	481.628	4965.57	6681.91	7674.58	6492.93	56.1923	5038	2593.71	873.976	8592.52	21.592	209.463	19.149	216.542	194.811	200.298	202.190	196.904	8192	-8191	8192	8192	254	
77629.508	1	1	0	0	4598.37	4779.42	4299.9	5.12369	3427.42	1632.25	505.15	5034.44	6738.25	7681.71	6525.51	60.399	5025	2578.41	900.74	8669.2	20.565	208.936	19.003	205.020	195.293	200.014	204.294	196.592	8192	-8191	8192	8192	254	
77629.555	1	1	0	0	4446.6	4707.66	4312.32	5.66687	3503.87	1648.65	506.904	5090.85	6637.58	7642.52	6504.79	57.0625	5011.31	2563.58	889.582	8696.85	21.317	209.236	19.575	238.686	196.489	199.548	201.119	197.195	8192	-8191	8192	8192	254	
77629.625	1	1	0	0	4505.77	4719.99	4217.88	7.15039	3456.4	1651.77	538.455	4959.35	6668.88	7648.57	6483.03	54.2596	4993.82	2563.61	902.337	8641.24	20.723	209.352	19.045	154.092	196.268	200.177	200.898	196.787	8192	-8191	8192	8192	254	
77629.672	1	1	0	0	4531.75	4708.94	4227.07	6.11744	3481.66	1632.19	506.023	5027.82	6696.02	7628.6	6425.8	51.1058	5031.28	2564.7	889.394	8695.84	20.689	208.488	20.062	232.441	196.874	198.781	203.030	195.977	8192	-8191	8192	8192	254	
77629.719	1	1	0	0	4532.29	4693.71	4252.07	10.9361	3420.5	1590.18	504.413	5029.06	6677.04	7639.87	6477.25	54.5096	4968.66	2537.39	890.447	8644.26	21.008	209.649	19.509	230.147	196.596	200.656	201.748	196.931	8192	-8191	8192	8192	254	
77629.773	1	1	0	0	4466.42	4739.16	4288.54	7.23907	3407.41	1655.65	493.097	4944.52	6671.82	7634.84	6499.48	54.3462	4963.14	2580.43	892.226	8677.78	21.082	208.753	20.423	206.199	195.357	200.007	205.849	196.190	8192	-8191	8192	8192	254	
77629.766	1	1	0	0	4549.21	4722.76	4303.59	9.7226	3478.9	1556.22	514.605	4971.09	6681.66	7634.98	6534.26	57.6731	5023.38	2523.68	893.327	8653.52	21.217	208.816	19.811	194.029	196.155	201.252	203.833	196.554	8192	-8191	8192	8192	254	
77629.820	1	1	0	0	4529.62	4689.51	4234.1	2.23085	3429.01	1621.25	533.584	5027.02	6688.13	7617.28	6462.22	55.7788	5013.45	2541.48	905.135	8664.27	21.431	208.952	19.000	202.686	195.412	199.399	203.004	196.475	8192	-8191	8192	8192	254	
77629.867	1	1	0	0	4491.12	4728.31	4286.27	10.8179	3431.33	1625.35	493.685	4980.33	6679.71	7676.59	6499.73	53.0913	4995.67	2544.16	891.327	8664.16	21.067	209.902	19.771	181.487	196.105	199.814	202.565	197.176	8192	-8191	8192	8192	254	
77629.914	1	1	0	0	4511.56	4749.15	4299.57	6.92445	3478.6	1595.71	511.99	5001.13	6694.62	7663.14	6498.76	53.8606	4985.38	2555.79	882.615	8666.85	21.290	209.836	20.050	173.261	195.865	199.293	202.885	196.781	8192	-8191	8192	8192	254	
77629.984	1	1	0	0	4518.28	4769.12	4241.53	2.13061	3457.94	1632.8	512.134	5022.24	6651.3	7675	6479.79	62.9279	5013.33	2556.5	906.514	8663.4	20.433	209.316	20.469	268.538	196.149	199.622	205.940	196.265	8192	-8191	8192	8192	254	
77630.031	1	1	0	0	4534.59	4777.42	4241.17	4.35572	3394.39	1562.13	526.236	5018.02	6712.1	7659.07	6490.68	57.1635	4959.43	2514.25	911.216	8702.5	21.380	209.245	19.115	220.365	196.046	199.719	202.314	196.674	8192	-8191	8192	8192	254	
77630.078	1	1	0	0	4579.45	4686.63	4307.73	6.825	3453.17	1622.98	506.125	5008.93	6689.75	7663.36	6505.27	50.5865	4979.76	2568.51	899.856	8697.33	20.650	209.095	19.375	195.171	195.795	200.004	203.704	196.373	8192	-8191	8192	8192	254	
77630.133	1	1	0	0	4533.14	4678.49	4359.25	3.88111	3494.03	1635	485.55	5012.99	6714.58	7611.93	6518.92	52.2596	5030.62	2560.71	895.101	8645.4	21.243	209.455	19.487	277.216	196.083	200.185	204.682	196.993	8192	-8191	8192	8192	254	
77630.180	1	1	0	0	4533.18	4724.25	4250.76	5.81262	3419.11	1621.67	503.015	5042.85	6677.87	7667.29	6484.44	46.9712	4970.93	2574.93	895.846	8663.07	20.889	209.134	19.391	167.884	196.156	200.251	202.294	197.010	8192	-8191	8192	8192	254	
77630.227	1	1	0	0	4541.79	4793.79	4292.67	7.51314	3404.94	1606.12	537.119	5045.71	6696.95	7665.17	6492.15	57.3317	4977.5	2568.95	920.01	8699.5	20.749	208.933	20.261	217.118	196.353	199.633	202.767	196.396	8192	-8191	8192	8192	254	
77630.297	1	1	0	0	4502.52	4810.88	4308.04	9.47908	3495.41	1619.06	532.977	4942.05	6706.83	7677.52	6472.61	51.9038	5021.18	2560.85	922.938	8617.07	21.824	208.965	18.632	241.613	196.046	199.408	204.636	196.172	8192	-8191	8192	8192	254	
77630.344	1	1	0	0	4511	4818.89	4324.97	11.3498	3453.11	1620.01	506.103	5049.77	6697.96	7674.89	6507.12	51.2644	5019.24	2565.59	883.125	8683.02	21.016	208.533	19.940	215.932	196.039	200.888	202.266	196.733	8192	-8191	8192	8192	254	
77630.391	1	1	0	0	4583.12	4711.08	4307.87	6.73611	3402.84	1599.81	472.87	4965.34	6702.09	7665.71	6509.25	49.1971	4988.05	2552.43	883.731	8707.16	21.088	209.047	20.068	209.271	196.291	199.754	204.733	196.405	8192	-8191	8192	8192	254	
77630.438	1	1	0	0	4542.19	4798.59	4228.24	6.68213	3488.1	1611	493.176	4959.51	6742.75	7711.29	6489.03	54.3654	5015.2	2571.62	900.24	8616.83	21.223	209.700	19.933	248.988	196.741	200.860	202.943	196.573	8192	-8191	8192	8192	254	
77630.492	1	1	0	0	4519.97	4745.35	4197.36	6.08877	3453.85	1665.33	489.725	5102.11	6642.62	7668.66	6480.02	58.5865	4998.86	2572.7	885.947	8719.62	20.750	210.127	19.022	177.959	196.615	199.693	203.488	196.188	8192	-8191	8192	8192	254	
77630.539	1	1	0	0	4569.87	4683.88	4315.88	5.61414	3407.8	1611.41	501.265	5017.58	6680.91	7621.8	6484.83	56.6587	4971.83	2538.35	888.096	8650.13	21.121	208.614	19.500	202.816	195.904	199.013	204.579	196.924	8192	-8191	8192	8192	254	
77630.539	1	1	0	0	4564.36	4713.68	4254.72	6.42686	3476.28	1630.08	506.877	4934.25	6728.16	7664.8	6469.87	54.3606	5000.15	2559.82	902.692	8631.78	20.963	209.196	19.810	207.282	196.718	199.596	203.823	197.194	8192	-8191	8192	8192	254	
77630.586	1	1	0	0	4597.64	4755.98	4296.71	2.50022	3448.56	1627.16	529.184	4874.41	6706.67	7657.17	6494.1	50.2452	4994.17	2565.55	907.058	8610.54	21.063	209.219	19.637	231.764	196.280	199.526	201.250	196.653	8192	-8191	8192	8192	254	
77630.656	1	1	0	0	4502.91	4662.54	4275.36	4.17784	3435.56	1647.71	515.757	5024.71	6654.05	7593.09	6504.13	54.3942	4979.89	2567.88	907.471	8635.8	21.245	209.499	19.697	247.721	196.597	198.929	205.814	195.869	8192	-8191	8192	8192	254	
77630.703	1	1	0	0	4544.63	4821.45	4316.69	4.44525	3413.68	1596.07	517.229	5014.5	6708.38	7713.27	6510.33	52.1827	4992.15	2527.74	910.933	8613.48	20.786	209.355	19.591	191.935	196.411	200.561	202.370	196.071	8192	-8191	8192	8192	254	
77630.750	1	1	0	0	4605.23	4753.76	4272.16	7.92982	3463.77	1655.74	503.759	4992.49	6717.8	7675.72	6496.96	56.649	5013.81	2588.89	911.447	8647.48	20.707	208.357	19.414	209.905	196.510	201.258	202.862	197.055	8192	-8191	8192	8192	254	
77630.805	1	1	0	0	4531.93	4745.91	4282.67	4.67686	3444.83	1614.13	508.693	5026.18	6712.45	7649.13	6452.64	51.8125	5001.25	2561.14	905.567	8661.38	21.235	208.941	19.886	207.525	196.435	200.245	203.161	196.292	8192	-8191	8192	8192	254	
77630.852	1	1	0	0	4480.1	4717.63	4279.39	7.60347	3412.07	1601.64	493.539	5000.58	6686.15	7669.84	6501.19	53.2788	4977.38	2534.5	885.375	8666.68	21.315	209.536	19.717	248.759	196.007	199.482	203.868	196.259	8192	-8191	8192	8192	254	
77630.898	1	1	0	0	4553.56	4789.51	4249.49	4.71507	3415.5	1608.34	497.243	4991.87	6742.44	7658.74	6494.31	54.0865	5004.16	2557.98	883.837	8609.92	20.980	209.052	19.227	277.023	196.395	199.868	203.238	196.422	8192	-8191	8192	8192	254	
77630.945	1	1	0	0	4538.25	4792.23	4314.61	7.54845	3501.72	1652.13	525.383	5061.21	6719.73	7707.05	6506.2	55.3125	5025.5	2581.26	901.553	8673.86	20.754	209.617	19.522	196.614	195.818	199.959	201.808	197.399	8192	-8191	8192	8192	254	
77630.992	1	1	0	0	4534.1	4865.35	4295.22	4.7499	3480.03	1635.44	517.514	4995.92	6716.92	7726.46	6478.97	50.7692	4998.8	2571.26	900.072	8690.6	21.589	209.149	19.725	356.630	196.556	197.236	203.574	196.289	8192	-8191	8192	8192	254	
77631.039	1	1	0	0	4506.43	4724.6	4299.18	10.3657	3473.84	1643.51	515.847	4965.02	6671.13	7637.47	6515.49	52.7067	5020.07	2564.07	896.269	8640.29	20.616	209.678	19.731	253.034	195.959	200.891	201.732	196.842	8192	-8191	8192	8192	254	
77631.086	1	1	0	0	4492.07	4751.09	4227.45	7.74991	3417.88	1619.79	499.669	4963.74	6690.48	7671.54	6471.99	57.7067	5004.73	2549.66	886.538	8674.93	21.018	209.178	19.597	217.656	196.359	200.396	204.334	197.451	8192	-8191	8192	8192	254	
77631.164	1	1	0	0	4528.81	4743.3	4279.04	5.01957	3448.22	1586.76	524.925	4975.83	6688.97	7628.7	6503.02	56.8846	4982.66	2525.42	907.101	8647.9	21.406	208.762	20.239	232.375	196.247	199.927	201.955	196.008	8192	-8191	8192	8192	254	
77631.211	1	1	0	0	4595.35	4756.71	4286.88	7.31896	3402.02	1630.23	508.297	4915.99	6716.68	7657.59	6467.5	53.8317	5012.63	2573.05	902.457	8588.76	20.866	209.536	19.709	225.702	196.225	199.732	204.814	197.041	8192	-8191	8192	8192	254	
77631.258	1	1	0	0	4596.04	4813.96	4230.5	11.1981	3433	1638.37	511.522	5011.14	6710.25	7685.01	6490.43	54.7163	4988.68	2572.15	890.846	8635.01	20.875	209.133	19.254	191.342	195.802	198.791	203.693	197.054	8192	-8191	8192	8192	254	
77631.305	1	1	0	0	4573.12	4655.22	4287.12	7.97267	3453.55	1593.84	521.148	4982.61	6744.6	7602.67	6509.11	51.3462	4940.12	2545.62	899.51	8659.87	21.639	208.967	19.649	314.173	195.468	199.842	203.060	196.597	8192	-8191	8192	8192	254	
77631.305	1	1	2	0	4575.76	4684.2	4252.97	3.64801	3488.61	1589.55	520.751	4930.86	6738.12	7623.51	6484.67	53.7356	5021.52	2544.68	902.409	8614.28	21.015	208.001	19.500	222.853	196.530	199.369	205.074	195.829	8192	-8191	8192	8192	254	
77631.352	1	1	0	0	4462.09	4678.39	4323.57	5.34751	3511.18	1650	498.164	5047.5	6666.77	7664.61	6495.06	54.0385	5002.71	2562.87	885.25	8686.51	21.181	209.104	19.662	263.299	195.504	200.541	200.512	196.370	8192	-8191	8192	8192	254	
77631.398	1	1	0	0	4576.54	4818.85	4247.01	10.4147	3483.18	1641.01	503.944	5053.35	6696.69	7675.68	6455.22	51.5721	5010.02	2567.97	897.769	8682.34	21.286	209.028	20.032	188.122	195.341	200.218	204.008	196.747	8192	-8191	8192	8192	254	
77631.445	1	1	0	0	4518.18	4757.88	4237.16	9.0701	3495.55	1624.85	498.378	5056.06	6678.46	7674.17	6475.67	55.1106	5029.83	2567.2	888.889	8669.2	21.314	209.914	20.078	205.206	195.878	200.143	204.971	196.600	8192	-8191	8192	8192	254	
77631.523	1	1	0	0	4480.34	4816.86	4209.25	12.2077	3455.66	1614.89	478.452	5090.03	6673.2	7692.5	6477.11	54.5913	5017.79	2564.14	884.865	8691.42	20.678	209.556	19.415	222.626	196.800	201.015	202.706	197.161	8192	-8191	8192	8192	254	
77631.570	1	1	0	0	4519.85	4884.3	4313.97	3.91942	3471.62	1633.96	522.691	4974.61	6697.64	7725.2	6520.72	60.5433	5042	2569.44	914.115	8664.57	20.966	208.712	20.070	174.341	196.553	199.388	203.044	195.735	8192	-8191	8192	8192	254	
77631.617	1	1	0	0	4570.23	4686.72	4316.12	7.67303	3430.06	1625.45	514.313	4970.36	6717.49	7644.09	6515.03	52.5481	4982.99	2573.61	892.889	8615.21	21.118	209.202	19.309	184.439	196.160	199.810	201.792	196.730	8192	-8191	8192	8192	254	
77631.664	1	1	0	0	4517.52	4784.73	4303.84	4.54028	3481.57	1631.31	531.507	5063.66	6692.39	7680.72	6548.98	46.274	5011.79	2570.76	909.087	8629.91	20.757	209.038	19.321	171.418	196.120	200.886	203.141	196.101	8192	-8191	8192	8192	254	
77631.711	1	1	0	0	4532.9	4773.5	4314.09	10.1832	3425.59	1610.78	485.732	4991.71	6712.99	7677.11	6533.01	53.7212	5010.89	2553.22	887.933	8649.19	21.276	209.342	19.730	214.813	195.951	199.264	202.964	196.259	8192	-8191	8192	8192	254	
77631.766	1	1	0	0	4519.01	4693.07	4240.23	8.21427	3495.68	1645.26	521.413	5044.19	6669.77	7646.32	6488.55	51.0673	5016.41	2590.55	909.779	8658.72	21.050	209.240	19.526	201.928	196.626	200.534	202.550	196.672	8192	-8191	8192	8192	254	
77631.836	1	1	0	0	4561.04	4759.26	4276.46	6.7572	3502.86	1609.73	521.882	5016.49	6740.11	7655.15	6464.88	57.0288	5041.53	2552.52	905.255	8654.33	21.054	209.915	19.133	170.628	196.305	200.341	202.800	196.796	8192	-8191	8192	8192	254	
77631.883	1	1	0	0	4466.65	4768.62	4280.82	5.91586	3478.07	1649.52	497.539	5045.59	6674.06	7697.24	6526.12	86.2596	5091.28	2645.18	962.644	8732.44	20.581	209.207	19.438	100.064	196.320	200.675	202.685	196.723	8192	-8191	8192	8192	254	
77631.930	1	1	0	0	4539.34	4720.44	4248.68	9.47783	3410.35	1615.31	505.88	4983.49	6846.89	7817.64	6733.13	288.264	5182.14	2711.96	1064.12	8818.69	21.060	209.026	19.490	288.563	196.827	199.001	201.413	196.326	8192	-8191	8192	8192	254	
77631.977	1	1	0	0	4595.09	4789.7	4250.47	9.70377	3541.68	1595.65	485.538	5029.75	6898.07	7844.44	6627.15	179.87	5171.45	2639.12	965.332	8720.92	21.411	209.536	19.440	158.821	196.557	199.798	204.774	196.516	8192	-8191	8192	8192	254	
77632.023	1	1	0	0	4520.07	4749.78	4362.09	9.15627	3486.08	1639.71	509.964	4972.27	6769.66	7739.41	6611.67	96.6346	5059.3	2618.64	919.567	8666.42	20.621	208.967	19.599	206.903	196.581	200.536	202.687	196.852	8192	-8191	8192	8192	254	
77632.070	1	1	0	0	4560.87	4774.63	4190.4	6.59836	3407.07	1589.32	510.849	5026.81	6729.24	7686.5	6493.08	74.5913	5014.43	2559.92	915.659	8679.94	20.945	208.997	21.052	218.217	196.049	198.858	201.977	196.829	8192	-8191	8192	8192	254	
77632.070	1	1	0	0	4572.3	4762.07	4314.42	8.63841	3421.59	1622.19	512.949	5010.8	6765.6	7673.76	6536.77	68.7452	5004.88	2561.11	905.317	8662.99	21.045	210.157	19.450	224.068	195.518	198.360	203.304	197.640	8192	-8191	8192	8192	254	
77632.125	1	1	0	0	4523.65	4708.91	4323.75	7.50363	3470.61	1601.12	498.645	4979.34	6713.96	7699.38	6510.01	72.3702	5016.61	2594.08	899.803	8657.46	21.028	209.748	19.979	274.481	195.988	198.555	202.814	196.770	8192	-8191	8192	8192	254	
77632.195	1	1	0	0	4592.88	4666.55	4300.32	8.81195	3530.3	1617.52	517.125	5079.45	6771.77	7626.9	6524.99	83.4712	5090.32	2592.71	941.106	8759.24	20.933	209.817	20.011	191.575	195.898	198.963	203.500	195.576	8192	-8191	8192	8192	254	
77632.242	1	1	0	0	4580.72	4739.98	4278.3	7.8167	3491.52	1644.98	517.164	4949.34	6779.64	7688.11	6519.07	96.351	5097.49	2616.75	944.476	8688.4	20.369	208.820	20.657	55.722	196.206	198.869	203.369	195.785	8192	-8191	8192	8192	254	
77632.289	1	1	0	0	4565.22	4811.82	4304.67	15.0372	3482.84	1633.55	490.707	5083.99	6760.21	7740.26	6590.76	124.947	5083.28	2666.29	973.284	8818.99	21.406	208.308	19.038	228.206	197.346	200.717	202.793	195.968	8192	-8191	8192	8192	254	
77632.336	1	1	0	0	4533.51	4736.64	4264.18	11.878	3479.42	1646.22	500.676	5050.82	6813.89	7772.45	6599.41	162.601	5121.94	2684.96	1028.75	8803.76	21.654	208.968	19.135	193.331	195.754	201.113	207.972	197.122	8192	-8191	8192	8192	254	
77632.383	1	1	0	0	4591.48	4768.47	4258.68	2.16281	3410.11	1622.55	503.866	5008.61	6847.32	7836.87	6632.3	210.486	5191.86	2752.95	1070.03	8834.98	20.353	209.589	19.732	183.764	196.477	199.447	203.509	197.020	8192	-8191	8192	8192	254	
77632.438	1	1	0	0	4533.03	4758.05	4244.7	7.73312	3503.78	1634.27	498.95	5031.68	6855.67	7865.6	6641.55	254.755	5246.08	2791.38	1110.27	8922.43	20.761	209.277	19.225	195.487	196.590	199.746	202.241	196.458	8192	-8191	8192	8192	254	
77632.484	1	1	0	0	4579.27	4764.78	4247.74	2.80261	3482.45	1674.72	491.742	5010.21	6979.62	7911.9	6741.53	299.091	5272.92	2826.87	1137.04	8901.34	21.257	209.752	19.229	320.208	196.636	199.241	203.416	195.792	8192	-8191	8192	8192	254	
77632.531	1	1	0	0	4666.21	4783.75	4345.22	14.1601	3462.93	1592.22	494.978	4999.63	7012.2	7965.73	6788.35	324.5	5246.42	2792.05	1176.34	8911.25	20.868	209.370	19.879	249.525	196.230	199.142	200.711	196.378	8192	-8191	8192	8192	254	
77632.602	1	1	0	0	4505.86	4737.83	4315.56	16.8536	3374.27	1550.51	506.647	4936.81	6951.89	7976.31	6786.37	313.721	5168.07	2763.77	1145.25	8721.77	21.670	208.642	19.564	212.584	195.881	200.343	200.727	197.250	8192	-8191	8192	8192	254	
77632.648	1	1	0	0	4451.6	4617.53	4081.59	18.3222	3378.59	1566.8	484.816	4897.42	6813.84	7753.15	6563.13	315.433	5159.07	2753.57	1143.1	8724.96	21.732	209.251	19.493	180.427	196.467	199.717	200.834	196.787	8192	-8191	8192	8192	254	
77632.695	1	1	0	0	4401.73	4613	4152.19	8.84502	3392.64	1619.23	482.37	4903.65	6768.05	7768.78	6583.72	322.788	5198.91	2800.53	1142.41	8810.51	21.132	209.766	19.685	112.194	196.133	200.341	201.035	197.045	8192	-8191	8192	8192	254	
77632.742	1	1	0	0	4350.13	4213.65	3342.45	7.73121	1386.6	397.158	57.0592	310.792	6661.46	7012.6	5306.05	237.606	2141.01	728.5	222.058	634.048	21.033	208.267	20.118	158.929	196.340	198.391	202.508	195.075	8192	-8191	8192	8192	254	
77632.797	1	1	0	65536	72.2379	31.4017	21.938	9.96297	7.34648	2.42999	44.7319	314.763	203.688	141.861	125.13	101.308	104.952	153.043	1280.89	20351.3	28.041	198.789	14.442	145.548	178.205	228.900	126.640	114.432	8192	-8191	8192	8192	254	
77632.844	1	1	0	65536	218.497	15.4745	43.4277	41.8433	13.535	71.4925	16.7384	61.4372	26967.8	12906.2	13052.6	11846.8	12864.3	13765.1	14853.3	16152.6	276.836	322.261	88.147	197.946	246.351	113.300	347.921	186.330	8192	-8191	8192	8192	254	
77632.844	1	1	0	0	54.6052	38.5803	69.8107	18.9516	49.9773	79.4286	167.851	22.212	17315.4	18464.4	19195.3	19852.5	20437.3	21415.4	22177.3	22626.7	127.144	359.483	176.278	326.762	22.485	176.333	71.723	271.078	8192	-8191	8192	8192	254	
77632.891	1	1	0	0	43.9512	28.1082	62.6967	97.9573	92.4211	51.9793	94.2512	145.856	23254	24006.1	24327.9	24334.4	24118.1	23341.6	22409.4	21847.5	260.060	325.590	119.778	180.246	358.795	226.429	173.636	56.808	8192	-8191	8192	8192	254	
77632.938	1	1	0	65536	99.2277	132.36	168.144	117.68	145.034	69.6734	77.8872	140.461	21625.2	23220.6	24099.7	26573.9	27988	28929.2	28021.4	25878.4	271.873	74.169	47.767	136.538	123.817	62.874	264.292	258.543	8192	-8191	8192	8192	254	
77632.984	1	1	0	65536	60.2044	63.3999	120.353	41.3513	132.729	38.9691	71.1404	114.388	22252.6	20929.6	20887.6	24210.8	30233.5	30471.4	28924.2	25242.5	47.284	336.556	285.469	262.232	15.896	67.393	70.645	329.835	8192	-8191	8192	8192	254	
77633.055	1	1	0	65536	47.2045	137.048	53.4317	83.2	80.6497	178.057	92.1869	81.9444	23078.2	23534.1	22625.9	19180.5	18464.9	20617	19921.9	25792.8	349.749	89.694	16.093	317.274	142.013	117.661	274.853	105.642	8192	-8191	8192	8192	254	
77633.109	1	1	0	65536	159.214	151.608	47.5277	129.71	119.745	23.7357	98.0939	109.203	30509.8	30187.5	24602.7	27238.6	31875.8	32674.2	30126.5	24548.5	269.722	240.030	327.146	107.374	76.406	225.059	226.901	342.034	8192	-8191	8192	8192	254	
77633.156	1	1	0	0	119.328	63.4878	130.198	24.6364	16.8833	12.9964	24.6826	28.8537	17807.3	11668.9	7414.75	2974.71	1594.52	1588.5	2092.06	4286.71	273.299	301.131	258.011	325.738	177.608	13.169	23.473	35.121	8192	-8191	8192	8192	254	
77633.203	1	1	0	0	52.67	84.7678	25.1348	99.5813	64.6542	90.3426	15.5394	37.4482	8038.75	10119.5	10602.1	10540.5	8124.94	7256.08	5450.62	5068.78	65.281	131.052	129.537	308.186	49.409	278.709	146.851	3.638	8192	-8191	8192	8192	254	
77633.250	1	1	0	0	3.84367	31.8559	16.7185	10.7092	21.6872	31.5554	38.6683	14.2076	4036.5	3064.84	2529.83	2266.91	2080.38	1837.92	1609.12	1337.89	13.723	308.715	357.590	247.652	310.162	41.981	307.056	181.126	8192	-8191	8192	8192	254	
77633.297	1	1	0	0	11.8034	11.4478	17.1735	4.35618	5.75098	12.1544	11.4352	9.06127	1068.16	826.731	639.87	514.37	402.827	325.096	274.197	219.067	323.348	110.400	282.565	124.941	94.429	44.862	137.513	188.219	8192	-8191	8192	8192	254	
77633.367	1	1	0	0	13.649	17.6565	2.78844	7.23792	9.5217	11.1661	6.96696	3.99387	182.678	162.192	138.803	128.51	122.635	122.548	114.938	112.389	84.428	358.535	290.073	237.111	36.211	128.652	117.439	185.795	8192	-8191	8192	8192	254	
77633.422	1	1	0	0	9.99684	5.25448	8.57091	0.790614	9.74739	5.41959	1.30277	4.56567	115.264	111.091	114.264	109.231	106.861	110.678	103.317	111.764	78.000	173.799	230.175	251.453	215.510	220.907	43.090	121.854	8192	-8191	8192	8192	254	
77633.469	1	1	0	0	10.6361	3.87819	7.48336	2.88828	8.68026	12.5004	9.84834	132.666	107.798	106.841	109.067	101.572	123.649	124.562	126.947	341.966	27.885	201.643	55.080	67.912	193.066	204.718	266.204	196.497	8192	-8191	8192	8192	254	
77633.516	1	1	0	0	135.763	266.669	449.821	5.17739	697.642	385.965	129.997	1247.15	342.736	569.5	863.476	264.827	1303.74	930.865	556.462	2459.43	28.029	212.793	26.006	275.976	202.915	205.692	209.272	201.912	8192	-8191	8192	8192	254	
77633.562	1	1	0	0	1007.73	1055	951.873	4.89977	827.053	402.965	134.555	1219.12	1849.05	2032.48	1787.44	345.024	1529.59	964.514	565	2429.99	27.754	217.931	26.051	259.304	202.273	209.581	212.221	201.606	8192	-8191	8192	8192	254	
77633.609	1	1	0	0	1016.93	1051.95	934.79	7.18284	808.525	361.049	137.054	1249.65	1821.15	2026.01	1785.79	337.769	1519.06	950.25	546.322	2487.69	25.599	214.183	24.743	27.440	202.068	203.748	214.176	201.455	8192	-8191	8192	8192	254	
77633.609	1	1	0	0	1055.68	1112.62	965.159	13.7673	816.052	421.874	131.421	1276.44	1889.27	2102.51	1822.66	345.88	1554.39	985.495	554.24	2527.11	27.438	214.656	25.405	293.630	201.940	204.559	212.670	201.266	8192	-8191	8192	8192	254	
77633.656	1	1	0	0	1089.01	1060.25	1026.15	6.18098	829.718	425.486	139.568	1296.42	1927.56	2128.38	1855.01	326.048	1547.26	997.649	555.365	2564.22	27.584	213.583	24.872	326.099	200.577	206.004	208.415	201.837	8192	-8191	8192	8192	254	
77633.703	1	1	0	0	1103.5	1151.18	1039.64	6.65362	859.056	424.981	139.981	1303.96	1947.88	2189.33	1892.62	324.663	1587.75	996.447	548.413	2605.51	28.281	215.209	24.734	148.949	203.236	206.253	206.671	202.877	8192	-8191	8192	8192	254	
77633.758	1	1	0	0	1138.13	1166.47	1063.59	9.97872	872.741	454.133	125.431	1337.03	1963.82	2149.2	1916.47	299.591	1572.12	967.601	514.952	2556.57	27.171	215.686	24.754	278.043	200.997	204.660	206.800	201.734	8192	-8191	8192	8192	254	
77633.828	1	1	0	0	1082.05	1161.36	1017.59	12.8357	864.474	429.33	149.139	1269.17	1901.5	2107.16	1806.89	275.24	1510.19	914.952	483.87	2429.11	26.829	215.415	25.008	200.546	201.291	205.631	205.916	202.129	8192	-8191	8192	8192	254	
77633.875	1	1	0	0	1021.93	1107.89	983.985	23.4241	867.661	416.479	141.517	1194.66	1779.72	1988.01	1716.92	244.875	1434.75	853.188	435.558	2318.71	26.718	214.861	25.042	196.590	203.178	205.778	212.543	200.605	8192	-8191	8192	8192	254	
77633.922	1	1	0	0	1045.26	1056.97	953.046	5.16135	816.919	373.628	131.368	1179.6	1733.47	1897.03	1609.8	181.139	1327.93	758.438	371.659	2172.87	27.749	215.902	26.415	129.807	201.552	206.610	205.375	201.846	8192	-8191	8192	8192	254	
77633.969	1	1	0	0	966.456	994.588	899.288	5.87799	759.342	367.372	131.384	1143.4	1574.55	1762.36	1509.24	128.938	1235.51	711.471	323.832	2111.93	27.971	215.010	25.065	230.233	201.383	206.689	214.306	202.581	8192	-8191	8192	8192	254	
77634.016	1	1	0	0	995.129	998.425	919.434	10.3387	776.646	378.88	122.491	1167.99	1542.44	1715.49	1503.02	102.389	1217.2	667.447	286.779	2109.63	27.207	214.042	26.408	235.015	203.485	205.830	213.814	201.376	8192	-8191	8192	8192	254	
77634.062	1	1	0	0	961.908	990.638	911.952	3.97408	764.825	378.554	115.705	1143.42	1513.22	1665.38	1445.01	83.5673	1184.92	660.462	262.889	2046.3	26.076	214.304	24.028	236.654	200.955	204.294	211.756	201.234	8192	-8191	8192	8192	254	
77634.117	1	1	0	0	975.714	994.544	899.652	4.01745	758.763	379.989	105.488	1159.22	1498.23	1658.63	1416.96	69.2548	1158.85	639.572	256.861	2035.36	26.652	215.162	24.709	341.422	201.207	203.811	207.758	202.558	8192	-8191	8192	8192	254	
77634.164	1	1	0	0	950.11	993.682	899.595	10.3683	782.018	360.613	120.249	1139.54	1464.5	1645.23	1423.39	59.1442	1172.04	632.721	262.01	2042.06	27.082	216.453	25.913	176.069	201.305	206.173	202.991	201.699	8192	-8191	8192	8192	254	
77634.234	1	1	0	0	969.007	976.312	864.585	5.20592	764.287	389.16	116.721	1137.61	1456.92	1601.46	1406.16	64.8221	1153.5	640.034	266.274	2024.35	26.780	214.183	24.843	258.605	201.543	204.352	205.658	200.417	8192	-8191	8192	8192	254	
77634.281	1	1	0	0	933.026	957.462	893.89	8.45485	743.828	355.548	122.167	1137.29	1451.18	1616	1420.21	70.8942	1156.55	634.466	273.312	2059.46	26.534	216.822	25.185	188.756	202.014	205.659	212.128	199.783	8192	-8191	8192	8192	254	
77634.328	1	1	0	0	953.125	977.827	888.09	2.85713	760.645	347.963	131.659	1146.02	1460.48	1650.15	1440.49	89.9279	1189.34	661.928	307.913	2070.19	27.231	215.094	26.341	47.918	202.025	204.334	206.812	202.299	8192	-8191	8192	8192	254	
77634.375	1	1	0	0	940.928	993.715	898.217	1.76907	741.108	362.078	108.725	1132.47	1498.63	1676.58	1448.43	125.784	1228.65	717	360.942	2145.35	28.973	215.921	26.444	220.646	199.946	205.866	207.718	202.642	8192	-8191	8192	8192	254	
77634.375	1	1	0	0	954.867	961.562	887	9.09451	750.281	371.563	132.964	1127.04	1596.66	1769.74	1552	221.091	1316.56	779.567	386.452	2124.91	26.920	216.428	26.467	271.897	204.066	206.789	210.887	201.737	8192	-8191	8192	8192	254	
77634.430	1	1	0	0	958.672	991.182	884.734	6.52952	766.237	355.603	121.719	1169.03	1573.1	1710.76	1493.1	139.01	1218.42	695.346	315.827	2098.56	27.370	215.306	24.472	134.739	201.363	205.212	206.695	203.839	8192	-8191	8192	8192	254	
77634.477	1	1	0	0	956.709	987.904	843.115	4.63223	735.966	362.156	123.313	1128.75	1516.12	1666.87	1420.08	85.7452	1162.8	658.038	274.986	2029.41	26.292	217.702	25.172	143.635	202.542	206.703	205.175	201.028	8192	-8191	8192	8192	254	
77634.523	1	1	0	0	947.438	948.098	853.809	11.0327	775.49	368.858	113.906	1150.52	1448.34	1626.24	1376.99	69.9856	1166.99	651.303	273.928	2067.9	26.959	214.902	25.191	108.922	201.044	207.213	203.696	201.783	8192	-8191	8192	8192	254	
77634.594	1	1	0	0	950.026	976.116	876.965	9.18065	741.354	346.373	129.226	1148.73	1475.4	1666.69	1429.97	86.6106	1163.81	636.572	277.365	2047.46	26.594	215.205	25.625	173.331	201.995	207.333	206.080	202.949	8192	-8191	8192	8192	254	
77634.641	1	1	0	0	964.326	981.846	913.295	6.04441	764.078	375.959	117.934	1153	1483.54	1654.33	1437	67.3221	1160.77	640.337	250.981	2009.84	26.614	213.660	24.884	213.820	202.289	205.752	205.706	201.090	8192	-8191	8192	8192	254	
77634.688	1	1	0	0	956.176	985.237	916.923	0.609107	750.283	379.67	124.321	1134.84	1445.38	1617.46	1415.13	49.6058	1131.1	631.822	239.793	2021.95	28.042	216.800	26.915	269.799	201.094	204.409	208.569	203.233	8192	-8191	8192	8192	254	
77634.734	1	1	0	0	950.343	990.342	877.568	3.82924	775.867	379.792	120.235	1116.6	1444.28	1602.33	1387.57	40.7308	1145.03	624.274	235.226	1999.31	27.565	216.842	25.037	193.776	202.095	203.512	207.839	201.228	8192	-8191	8192	8192	254	
77634.789	1	1	0	0	964.882	969.682	895.774	4.94078	771.475	370.239	126.556	1148.96	1446.34	1577.08	1391.78	44.5288	1137.26	610.788	243.077	2006.44	25.736	216.566	24.170	27.942	202.378	207.353	207.045	201.621	8192	-8191	8192	8192	254	
77634.836	1	1	0	0	957.484	988.226	878.04	8.85356	778.061	393.277	120.769	1138	1441.15	1587.93	1383.83	39.6538	1139.3	625.688	235.88	2004.25	28.260	215.358	25.808	36.626	200.851	206.555	208.581	200.653	8192	-8191	8192	8192	254	
77634.906	1	1	0	0	959.643	1001.64	881.593	3.16943	780.095	382.267	122.312	1141.54	1419.93	1613.86	1377.61	47.899	1131.46	631.327	240.923	1992.5	26.531	213.117	26.023	95.723	201.746	204.239	205.175	201.396	8192	-8191	8192	8192	254	
77634.953	1	1	0	0	925.916	961.899	881.1	2.36075	749.12	371.489	119.191	1139.98	1434.28	1581.71	1368.58	43.9327	1127.25	621.264	241.25	1998.88	27.575	215.866	25.725	304.748	202.451	207.931	209.338	201.111	8192	-8191	8192	8192	254	
77635.000	1	1	0	0	947.795	935.569	870.016	4.36968	777.611	364.871	110.344	1128.45	1427.86	1568.12	1384.98	40.9231	1138.33	606.755	236.731	2003.4	27.338	215.984	26.157	17.078	200.491	205.260	203.466	202.681	8192	-8191	8192	8192	254	
77635.047	1	1	0	0	972.266	975.618	831.653	2.3474	765.932	365.574	116.681	1115.48	1433.51	1585.97	1337.25	42.8654	1121.11	606.163	244.428	1989.27	27.011	216.299	26.464	118.955	203.312	204.434	209.350	201.584	8192	-8191	8192	8192	254	
77635.102	1	1	0	0	954.437	952.876	866.304	3.7676	745.749	362.832	124.165	1101.84	1428.46	1585.89	1359.87	41.1923	1126.22	616.808	241.024	1970.91	26.675	215.672	26.205	187.337	203.768	205.205	205.996	202.385	8192	-8191	8192	8192	254	
77635.148	1	1	0	0	958.448	929.499	901.938	3.0772	763.203	365.704	117.228	1096.08	1429.59	1580.63	1380.2	41.7981	1130.37	603.928	239.226	1976.25	27.047	214.622	25.053	156.338	203.897	206.011	211.438	202.755	8192	-8191	8192	8192	254	
77635.148	1	1	0	0	941.948	955.491	926.494	3.962	765.221	372.084	115.408	1124.04	1403.34	1583.89	1392.3	43.0192	1125.5	620.471	237.207	1975.01	26.058	215.648	25.069	251.800	201.725	208.039	205.303	200.640	8192	-8191	8192	8192	254	
77635.195	1	1	0	0	951.386	972.115	932.083	3.66715	749.83	379.163	111.758	1128.51	1435.65	1592.87	1391.09	42.0385	1117.39	610.947	236.5	1997.13	25.798	214.748	25.160	348.075	202.540	203.618	206.419	200.486	8192	-8191	8192	8192	254	
77635.266	1	1	0	0	965.962	957.362	884.271	1.67546	739.604	341.991	124.517	1130.84	1445.58	1584.83	1379.38	41.2692	1114.24	602.779	237.438	1983.38	26.855	216.595	24.865	191.387	201.426	203.293	207.738	201.912	8192	-8191	8192	8192	254	
77635.312	1	1	0	0	958.418	975.63	885.906	5.45899	772.632	388.672	114.96	1134.99	1425.19	1587.15	1379.82	39.1731	1128.79	619.769	243.245	1996.41	25.107	214.198	24.042	209.238	202.783	203.212	209.963	202.513	8192	-8191	8192	8192	254	
77635.359	1	1	3	0	937.692	973.668	860.933	5.00441	759.986	369.906	121.822	1124.98	1424	1574.9	1360.11	38.4327	1108.34	605.962	238.067	1983.26	27.581	216.588	25.829	254.697	200.182	204.973	206.422	202.526	8192	-8191	8192	8192	254	
77635.406	1	1	0	0	944.409	922.585	875.766	4.62398	747.585	355.641	114.729	1110.39	1422.62	1547.35	1352.11	43.1827	1109.74	619.529	238.678	1986.91	26.391	218.575	23.886	78.263	203.230	207.171	210.993	202.678	8192	-8191	8192	8192	254	
77635.461	1	1	0	0	949.671	950.217	877.834	4.21763	742.969	352.273	118.192	1148.18	1427.72	1575.77	1374.97	43.2067	1124.44	609.288	240.115	1973.05	25.950	213.866	26.028	1.062	203.803	206.435	209.695	202.080	8192	-8191	8192	8192	254	
77635.508	1	1	0	0	924.449	969.979	892.655	2.07385	772.962	390.237	128.375	1159.48	1405.13	1564.26	1369.58	44.25	1119.5	618.062	245.591	1998.83	27.519	215.339	25.833	215.861	201.247	205.814	201.978	201.865	8192	-8191	8192	8192	254	
77635.555	1	1	0	0	966.56	969.423	901.924	3.0288	748.132	369.908	114.861	1061.38	1427.03	1580.49	1387.01	44.7596	1122.08	602.688	226.154	1955.29	25.974	215.893	26.422	69.527	202.126	203.223	207.632	202.445	8192	-8191	8192	8192	254	
77635.602	1	1	0	0	946.154	928.371	875.688	3.51053	728.385	372.597	111.064	1128.26	1400.8	1560.98	1361.88	41.0337	1100.46	616.812	231.639	1981.68	25.023	213.812	25.507	123.555	201.998	205.376	207.129	201.401	8192	-8191	8192	8192	254	
77635.648	1	1	0	0	937.565	953.416	864.593	6.48312	728.965	368.463	123.009	1133.54	1414.65	1582.29	1348.99	40.4712	1112.86	606.183	237.115	1995.21	26.498	216.223	25.695	91.654	201.280	205.212	210.068	201.823	8192	-8191	8192	8192	254	
77635.695	1	1	0	0	931.225	924.077	895.97	5.43228	751.595	367.047	109.699	1124.93	1395.58	1551.28	1372.12	44.0865	1118.11	608.788	234.736	1982.22	26.508	213.802	24.422	308.410	202.406	203.205	211.073	203.203	8192	-8191	8192	8192	254	
77635.773	1	1	0	0	957.208	943.084	897.556	5.60048	769.43	378.307	125.296	1125.06	1425.23	1563.47	1380.59	44.2404	1145.48	608.312	235.471	1983.48	26.700	216.288	24.177	192.351	202.484	204.415	204.508	202.396	8192	-8191	8192	8192	254	
77635.820	1	1	0	0	924.901	1000.36	867.794	1.99065	748.152	346.069	127.724	1108.48	1399.38	1586.38	1344.87	42.5769	1109.96	593.918	239.587	1978.34	28.718	216.062	25.806	274.018	202.494	204.448	208.532	203.480	8192	-8191	8192	8192	254	
77635.867	1	1	0	0	931.016	966.326	886.498	1.69493	753.261	373.942	111.731	1102.72	1415.49	1579.67	1355.95	43.0769	1123.93	613.192	233.029	1947.85	26.209	212.985	24.355	36.215	202.579	203.350	210.966	201.269	8192	-8191	8192	8192	254	
77635.914	1	1	0	0	913.994	957.538	897.11	7.88775	755.785	354.929	120.781	1106.35	1398.78	1565.72	1367.6	43.1538	1118.6	598.726	232.832	1952.19	27.306	214.557	26.338	297.002	201.622	206.310	210.852	203.798	8192	-8191	8192	8192	254	
77635.914	1	1	0	0	924.601	951.689	880.406	2.90821	751.721	375.189	119.904	1105.86	1399.87	1577.85	1357	40.3221	1114.62	615.159	240.688	1961.95	26.661	213.169	25.402	130.530	202.016	204.235	209.166	202.345	8192	-8191	8192	8192	254	
77635.961	1	1	0	0	927.494	955.09	860.941	4.24653	747.479	381.333	105.644	1128.54	1410.75	1559.18	1364.85	41.7548	1118.89	606.438	225.827	1990.11	26.695	215.844	24.405	239.147	200.373	204.294	206.062	200.966	8192	-8191	8192	8192	254	
77636.008	1	1	0	0	943.425	971.41	857.494	2.54531	754.728	366.943	130.188	1092.43	1420.92	1581.63	1327.34	43.0769	1108.07	607.553	244.51	1962.29	27.089	215.845	24.698	244.651	201.601	205.453	214.443	203.369	8192	-8191	8192	8192	254	
77636.055	1	1	0	0	947.555	968.247	891.998	1.1561	726.744	377.481	120.779	1105.64	1403.75	1583	1356.83	41.1971	1113.87	623.38	230.611	1946.52	26.925	213.931	25.203	236.801	201.840	207.332	211.709	201.520	8192	-8191	8192	8192	254	
77636.109	1	1	0	0	950.33	943.54	862.781	6.94245	775.311	355.802	117.645	1089.51	1417.4	1577.09	1365.04	41.1058	1125.63	601.875	231.769	1963.18	26.714	215.457	25.442	181.589	199.494	206.086	203.506	202.466	8192	-8191	8192	8192	254	
77636.156	1	1	0	0	931.701	938.145	894.643	3.77405	774.546	356.941	113.085	1119.28	1401.4	1561.54	1353.49	43.0769	1120.85	599.149	238.495	1960.06	27.726	215.874	26.403	190.192	201.186	206.771	207.607	202.969	8192	-8191	8192	8192	254	
77636.227	1	1	0	0	979.442	922.387	848.091	4.10958	741.081	362.456	121.662	1133.24	1420.7	1549.75	1329.8	38.8221	1104.81	599.5	238.851	1979.14	27.058	211.919	25.934	48.672	199.985	205.440	209.698	201.543	8192	-8191	8192	8192	254	
77636.273	1	1	0	0	963.152	983.724	873.113	6.14187	740.035	363.764	115.77	1113.66	1425.42	1594.38	1351.04	41.0144	1096.66	604.716	239.582	1931.94	26.866	214.023	26.512	248.312	201.210	206.469	208.717	201.665	8192	-8191	8192	8192	254	
77636.320	1	1	0	0	935.817	932.487	864.926	2.25468	752.099	362.54	121.593	1152.16	1419.49	1555.97	1340.62	44.0337	1114.29	610.769	245.808	1998.99	26.564	213.421	24.936	80.261	202.498	206.469	206.024	202.456	8192	-8191	8192	8192	254	
77636.367	1	1	0	0	906.968	934.143	858.192	3.90817	742.825	348.336	114.798	1087.29	1385.84	1573.05	1359.7	43.5721	1112.5	602.462	227.413	1959.73	27.434	216.240	25.671	278.702	203.388	205.518	206.082	202.386	8192	-8191	8192	8192	254	
77636.422	1	1	0	0	923.896	951.063	873.646	2.70638	750.406	355.986	116.928	1109.78	1408.8	1577.95	1362.55	43.7404	1101.78	599.817	234.212	1952	26.059	216.004	26.146	88.175	199.269	204.862	209.129	202.777	8192	-8191	8192	8192	254	
77636.469	1	1	0	0	933.199	976.752	869.418	4.05638	718.411	350.275	105.811	1116.52	1403.5	1580.06	1354.73	47.6538	1100.04	602.942	233.255	1949.86	26.267	216.288	25.299	359.712	202.093	204.167	214.025	203.097	8192	-8191	8192	8192	254	
77636.539	1	1	0	0	941.777	974.787	855.156	5.22837	757.448	371.733	102.975	1143.15	1416.75	1580.17	1343.85	40.0673	1107.47	609.183	227.514	1992.27	27.086	215.008	24.233	332.766	199.637	203.611	208.756	202.157	8192	-8191	8192	8192	254	
77636.586	1	1	0	0	922.873	924.729	866.777	0.885286	747.784	364.515	113.904	1113.3	1400.7	1550.15	1351.74	44.2404	1099.92	606.976	231.264	1962.11	29.230	217.223	25.476	167.691	202.261	207.722	205.520	200.124	8192	-8191	8192	8192	254	
77636.633	1	1	0	0	955.783	945.271	843.045	3.33452	743.972	370.861	113.968	1126.91	1426.84	1560.37	1350.19	43.9519	1111.73	608.048	230.74	1991.12	25.609	214.532	27.935	131.630	202.055	203.236	211.953	201.740	8192	-8191	8192	8192	254	
77636.680	1	1	0	0	943.941	964.452	832.431	1.14882	727.767	362.212	117.069	1161.79	1402.63	1581.53	1341.5	37.274	1097.89	601.154	239.183	1996.99	26.820	217.476	26.062	225.830	200.927	204.887	206.241	202.176	8192	-8191	8192	8192	254	
77636.680	1	1	0	0	931.982	933.574	852.831	4.41398	776.133	371.903	117.897	1102.98	1411.09	1559.54	1329.05	41.2788	1126.65	622.649	235.976	1956.22	27.112	215.228	25.634	281.328	202.322	203.405	210.225	199.515	8192	-8191	8192	8192	254	
77636.734	1	1	0	0	941.501	947.449	878.38	2.68434	738.68	374.73	115.36	1139.64	1415.76	1552.67	1357.92	39.9231	1099.68	617.038	235.909	1966.78	25.287	216.200	24.081	27.872	200.595	203.850	206.894	201.556	8192	-8191	8192	8192	254	
77636.781	1	1	0	0	926.633	983.868	879.227	5.08926	742.243	370.418	123.911	1114.71	1403.41	1573.88	1339.91	44.4231	1111.79	597.375	239.548	1975.01	27.731	215.852	25.319	122.924	201.892	204.402	207.079	199.871	8192	-8191	8192	8192	254	
77636.828	1	1	0	0	920.658	934.481	855.331	5.52874	731.628	342.886	110.167	1096.87	1402.6	1545.85	1349.02	39.7644	1107.58	593.668	225.952	1951.78	26.049	214.623	25.420	262.213	201.650	206.142	209.260	201.371	8192	-8191	8192	8192	254	
77636.898	1	1	0	0	942.812	963.89	865.93	1.71714	745.406	383.567	120.076	1133.57	1417.26	1567.22	1354.76	43.0288	1107.23	618.361	234.663	2003.12	26.242	216.955	24.787	95.259	202.133	206.405	206.354	201.363	8192	-8191	8192	8192	254	
77636.945	1	1	0	0	910.765	960.819	880.723	3.43285	728.474	364.625	115.853	1102.61	1405.68	1584.11	1372.79	40.4135	1092.77	611.423	230.875	1941.12	27.456	215.576	25.279	275.824	200.928	206.000	208.739	200.952	8192	-8191	8192	8192	254	
77636.992	1	1	0	0	946.852	964.457	889.067	5.06217	728.109	375.578	117.851	1139.13	1409.13	1554.64	1349.12	43.5769	1098.08	611.596	232.255	1963.11	27.244	214.957	26.604	127.471	203.628	205.514	206.220	201.904	8192	-8191	8192	8192	254	
77637.039	1	1	0	0	935.901	953.131	854.249	0.299101	738.93	364.397	103.257	1113.02	1400	1561.74	1356.25	40.5721	1114.58	599.303	227.058	1949.13	27.285	215.855	25.524	60.757	203.640	205.738	209.636	202.251	8192	-8191	8192	8192	254	
77637.094	1	1	0	0	950.793	976.644	880.561	9.27956	746.012	360.822	107.642	1120.3	1409.7	1587	1365.09	42.4087	1103.93	608.524	240.62	1957.66	28.175	216.179	23.674	297.739	202.912	207.671	202.482	202.047	8192	-8191	8192	8192	254	
77637.141	1	1	0	0	920.566	962.639	843.893	2.63184	719.592	364.599	109.691	1082.5	1379.08	1551.46	1344.92	42.3558	1083.68	604.053	231.053	1958.19	27.356	215.037	27.363	342.206	201.296	206.038	212.049	201.904	8192	-8191	8192	8192	254	
77637.211	1	1	0	0	926.281	946.229	869.5	2.43092	739.451	344.951	120.778	1120.08	1398.75	1568.09	1371.25	44.9519	1113.79	586.861	233.99	1965.8	26.794	216.092	25.282	59.211	203.205	204.964	205.985	201.966	8192	-8191	8192	8192	254	
77637.258	1	1	0	0	950.735	944.808	856.205	1.03794	743.287	368.85	115.971	1142.04	1429.2	1572.12	1347.82	41.2548	1112.5	602.784	235.918	1983.22	26.004	215.908	24.491	3.590	201.972	205.314	207.875	201.572	8192	-8191	8192	8192	254	
77637.305	1	1	0	0	933.16	974.668	874.354	3.30941	759.469	360.036	101.911	1126.17	1409.14	1578.59	1358.64	33.5625	1114.64	603.572	234.87	1964.12	25.516	215.277	25.256	185.331	202.475	203.621	210.202	201.372	8192	-8191	8192	8192	254	
77637.352	1	1	0	0	927.233	963.193	884.071	4.01999	754.883	360.844	109.75	1105.56	1417.47	1567.81	1349.34	39.4038	1097.25	595.635	232.726	1945.21	26.577	215.561	24.720	207.535	201.109	203.135	209.783	202.044	8192	-8191	8192	8192	254	
77637.406	1	1	0	0	926.609	949.173	859.591	0.36227	752.806	384.111	115.43	1128.51	1390.14	1563.62	1342.07	41.726	1115.78	612.971	235.312	1959.28	27.574	216.784	27.057	325.772	200.665	207.559	210.445	202.825	8192	-8191	8192	8192	254	
77637.453	1	1	0	0	939.537	957.892	874.801	6.51757	779.532	378.222	117.874	1128.91	1408.58	1558.29	1368.53	40.7067	1131.85	613.562	225.524	1945.08	26.667	214.768	25.146	154.360	202.638	204.527	199.566	201.243	8192	-8191	8192	8192	254	
77637.453	1	1	0	0	913.853	941.486	895.023	1.3789	721.315	350.357	121.899	1113.32	1367.77	1547.71	1367.94	42.8558	1094.62	599.322	234.846	1978.92	25.867	215.301	25.338	228.020	203.225	207.532	211.396	204.475	8192	-8191	8192	8192	254	
77637.500	1	1	0	0	915.267	930.44	873.529	3.80913	730.425	354.915	121.043	1102.85	1409.29	1551.83	1344.22	39.0769	1103.59	593.986	225.745	1947.3	26.901	214.081	25.189	269.711	201.429	206.853	204.330	203.135	8192	-8191	8192	8192	254	
77637.547	1	1	0	0	935.105	918.367	868.741	9.23793	741.234	358.849	101.756	1114.97	1399.5	1546.47	1361.74	43.75	1104.56	601.803	233.572	1982.9	26.742	216.775	24.484	162.149	202.088	206.201	207.095	201.181	8192	-8191	8192	8192	254	
77637.594	1	1	0	0	950.678	949.142	867.881	8.2918	751.175	379.154	121.947	1140.76	1427.98	1549.09	1375.41	37.7837	1116.89	618.471	232.865	1975.59	27.144	213.456	25.170	255.862	202.668	205.484	215.494	201.918	8192	-8191	8192	8192	254	
77637.664	1	1	0	0	917.231	952.067	842.972	7.12618	730.991	369.753	114.612	1141.82	1394.46	1561.35	1317.07	40.9663	1108.27	604.486	229.163	1969.66	26.083	216.380	24.416	176.983	202.245	203.915	203.507	201.290	8192	-8191	8192	8192	254	
77637.711	1	1	0	0	914.18	946.466	880.858	3.66857	714.353	374.753	115.506	1091.37	1404.51	1559.37	1372.94	41.8654	1115.05	607.385	229.173	1933.56	27.527	215.187	23.688	203.141	201.412	204.667	208.360	202.034	8192	-8191	8192	8192	254	
77637.758	1	1	0	0	922.325	962.054	857.194	1.25808	754.906	361.093	114.17	1110.51	1392.45	1566.38	1331.51	40.6827	1111.12	601.716	234.76	1972.93	27.010	215.802	24.747	222.100	201.448	203.576	214.324	202.226	8192	-8191	8192	8192	254	
77637.812	1	1	0	0	921.175	963.085	865.45	5.06505	743.87	358.311	119.8	1116.45	1407.99	1575.89	1340.72	44.149	1104.31	610.413	233.519	1964.14	28.673	215.898	25.593	216.783	201.184	205.909	208.029	201.158	8192	-8191	8192	8192	254	
77637.859	1	1	0	0	924.956	973.584	892.556	3.23043	761.316	357.094	99.476	1108.93	1408.49	1579.14	1356.73	43.6442	1119.14	597.014	229.784	1937.12	26.862	217.236	26.846	228.738	203.763	203.984	213.921	203.105	8192	-8191	8192	8192	254	
77637.906	1	1	0	0	946.025	937.339	897.521	3.16975	700.297	390.921	107.064	1088.81	1418.61	1552.8	1352.99	43.3077	1073.39	609.716	228.976	1945.76	25.811	215.218	26.278	260.255	201.594	208.684	205.380	201.125	8192	-8191	8192	8192	254	
77637.977	1	1	0	0	918.032	934.772	878.504	3.80647	729.553	353.627	109.853	1134.06	1398.49	1551.33	1363.83	44.4808	1091.72	599.365	224.115	1977.95	25.332	213.913	23.857	135.687	201.051	202.826	203.320	201.424	8192	-8191	8192	8192	254	
77638.023	1	1	0	0	920.388	984.182	855.145	2.68097	746.638	378.522	120.254	1080.53	1418.44	1585.88	1345.68	40.7404	1094.89	602.404	228.481	1929.58	28.044	214.862	26.316	145.437	201.373	206.889	210.359	201.319	8192	-8191	8192	8192	254	
77638.070	1	1	0	0	908.951	915.745	851.201	2.2785	729.423	360.532	96.862	1116.99	1389.57	1553.04	1358.47	44.3606	1100.85	594.178	223.688	1965.29	24.644	214.608	26.321	190.451	203.474	206.089	205.343	202.874	8192	-8191	8192	8192	254	
77638.125	1	1	0	0	917.387	942.558	845.738	2.71575	749.331	371.558	114.915	1119.46	1385.31	1573.65	1362.09	43.5433	1105.38	614.885	225.548	1952.85	27.615	216.019	25.212	356.243	198.644	205.124	205.108	201.953	8192	-8191	8192	8192	254	
77638.172	1	1	0	0	930.506	934.651	821.838	4.18259	747.986	368.414	118.225	1117.54	1413.91	1566.87	1339.66	39.2163	1099.95	596.712	234.288	1972.03	27.005	215.444	25.536	222.736	201.627	206.037	213.334	201.885	8192	-8191	8192	8192	254	
77638.219	1	1	0	0	920.146	958.699	845.12	4.27946	714.818	357.032	120.828	1116.85	1402.62	1569.8	1332.47	46.3654	1098.67	601.005	236.322	1952.59	25.668	215.513	25.407	229.491	201.905	206.858	213.227	203.106	8192	-8191	8192	8192	254	
77638.219	1	1	0	0	914.891	948.221	917.982	2.58858	747.896	355.767	116.367	1141.65	1394	1576.39	1373.34	42	1109.13	603.784	233.005	1989.57	28.978	213.985	25.675	47.519	200.016	205.060	203.580	202.002	8192	-8191	8192	8192	254	
77638.266	1	1	0	0	915.519	981.548	864.37	2.61435	739.678	358.429	113.886	1132.15	1402.06	1580.82	1346.54	39.6298	1093.45	599.13	228.827	1977.72	28.381	214.942	26.351	230.270	202.930	206.056	207.564	202.409	8192	-8191	8192	8192	254	
77638.312	1	1	0	0	924.512	931.666	871.453	6.40548	713.39	362.758	116.763	1124.23	1412.29	1558.52	1345.28	42.1394	1088.06	604.572	243.288	1948.16	26.702	214.408	25.083	34.519	201.258	205.169	207.801	202.644	8192	-8191	8192	8192	254	
77638.359	1	1	0	0	958.644	939.881	868.744	5.77789	762.558	380.785	110.208	1110.97	1417.07	1543.97	1374.35	49.024	1106.22	619.774	236.663	1961.19	26.417	217.803	25.211	140.002	202.311	201.066	205.751	202.052	8192	-8191	8192	8192	254	
77638.438	1	1	0	0	945.141	947.662	853.659	6.36137	724.065	372.733	115.758	1105.69	1407.73	1553.52	1334.29	43.9712	1083.89	619.524	234.856	1942.73	28.128	216.301	25.009	210.502	201.150	205.812	204.637	201.617	8192	-8191	8192	8192	254	
77638.484	1	1	0	0	920.992	932.211	884.877	3.804	721.412	371.613	95.4094	1109.06	1393.88	1550.08	1358.32	41.0337	1096.91	601.332	215.514	1980.48	26.209	213.737	23.948	339.788	201.056	205.958	203.185	202.913	8192	-8191	8192	8192	254	
77638.531	1	1	0	0	915.848	958.771	851.869	7.58156	716.052	379.279	113.91	1111.91	1398.5	1576.6	1355.99	43.125	1085.51	620.635	232.615	1962.72	25.552	213.413	25.748	203.680	201.767	206.903	213.057	200.614	8192	-8191	8192	8192	254	
77638.578	1	1	0	0	922.329	953.024	870.932	2.00201	739.169	371.919	103.047	1092.35	1392.77	1570.12	1344.51	42.4663	1096.8	613.159	222.269	1959.62	26.574	214.611	26.257	184.846	201.300	208.330	204.420	201.233	8192	-8191	8192	8192	254	
77638.625	1	1	0	0	912.521	954.542	875.773	1.1623	753.309	368.968	101.576	1122.49	1399.13	1553.07	1356.61	36.4231	1112.52	598.399	237.019	1978.1	25.616	217.518	24.813	37.858	201.934	204.738	209.275	200.729	8192	-8191	8192	8192	254	
77638.672	1	1	0	0	881.765	954.487	873.306	3.43331	738.784	359.844	111.875	1097.45	1372.08	1570.24	1360.54	45.524	1106.22	603.303	235.332	1960.6	26.111	216.164	25.191	124.875	201.327	200.943	206.819	200.674	8192	-8191	8192	8192	254	
77638.742	1	1	0	0	940.519	923.478	890.856	3.81074	773.166	360.274	129.625	1121.55	1416.75	1553.25	1360.8	43.3221	1136.62	601.212	248.322	1960.65	27.226	215.049	24.836	170.885	202.199	203.519	207.066	203.894	8192	-8191	8192	8192	254	
77638.797	1	1	0	0	931.436	945.805	860.894	3.81203	765.409	355.962	100.655	1109.93	1394.05	1574.33	1345.43	42.7596	1140.37	601.928	236.591	1975.76	27.516	215.634	26.023	141.874	200.796	206.133	210.711	201.213	8192	-8191	8192	8192	254	
77638.844	1	1	0	0	935.102	939.155	865.229	0.484398	754.224	362.232	112.951	1099.23	1426.26	1547.82	1353.21	38.149	1110.03	595.875	233.481	1939.94	27.835	215.678	25.543	38.346	201.954	204.091	205.465	202.503	8192	-8191	8192	8192	254	
77638.891	1	1	0	0	953.459	933.244	855.214	4.82117	735.163	349.732	99.9932	1142.86	1424.57	1542.27	1342.87	44.4087	1099.63	593.793	232.846	1960.26	27.735	214.637	25.961	90.191	200.269	206.553	207.951	203.304	8192	-8191	8192	8192	254	
77638.938	1	1	0	0	945.583	960.83	890.053	7.65065	738.242	344.864	105.689	1124.51	1425.49	1568.43	1371.68	45.5048	1100.99	599.163	230.067	1974.92	27.529	215.416	25.956	342.232	200.177	204.539	208.616	201.141	8192	-8191	8192	8192	254	
77638.984	1	1	0	0	945.908	940.361	902.909	5.77063	751.33	368.515	119.079	1110.21	1409.93	1560.32	1377.64	44.4183	1108.69	606.269	231.75	1954.15	26.614	215.772	25.301	248.148	203.325	203.558	208.097	202.638	8192	-8191	8192	8192	254	
77638.984	1	1	0	0	898.591	947.337	892.553	4.97673	724.571	353.045	110.68	1150.54	1384.27	1565.53	1377.75	47.3365	1110.4	600.75	231.269	1992.92	27.091	215.831	25.230	310.968	201.746	202.852	204.843	203.575	8192	-8191	8192	8192	254	
77639.031	1	1	0	0	949.554	948.998	856.188	2.39726	777.573	386.136	119.224	1157.4	1420.85	1592.83	1337.84	43.9183	1119.85	618.154	234.26	1986.62	26.506	215.028	26.167	244.745	201.888	206.510	209.149	201.653	8192	-8191	8192	8192	254	
77639.078	1	1	0	0	977.727	952.917	873.279	6.18949	742.925	367.303	119.172	1122.05	1435.29	1579.59	1351.8	43.6154	1114.32	608.851	242.851	1979.42	27.301	215.584	25.894	226.027	202.576	206.116	208.235	203.816	8192	-8191	8192	8192	254	
77639.133	1	1	0	0	903.454	940.815	881.73	3.46465	728.359	372.761	124.71	1149.12	1391.34	1595.11	1369.91	48.1442	1090.49	625.548	238.418	1999.64	25.718	215.795	25.133	2.884	202.459	206.871	205.235	202.234	8192	-8191	8192	8192	254	
77639.203	1	1	4	0	927.459	967.843	862.547	2.21901	717.004	368.498	114.183	1144.91	1400.51	1573.72	1361.34	43.5144	1113.28	616.721	239.159	2011.73	26.873	216.286	25.031	15.326	201.155	203.965	210.806	201.065	8192	-8191	8192	8192	254	
77639.250	1	1	0	0	931.405	977.01	880.808	10.0541	770.472	365.746	116.555	1143.84	1430.81	1571.99	1361.97	48.0144	1136.71	618.173	241.183	1991.67	27.207	216.122	24.595	194.008	201.916	203.577	209.898	202.029	8192	-8191	8192	8192	254	
77639.297	1	1	0	0	967.083	957.176	895.389	4.52487	743.484	358.34	111.312	1134.37	1434.53	1581.96	1390.82	47.5577	1115.12	612.635	240.216	1995.07	27.123	216.140	27.092	254.117	201.939	209.621	211.092	202.452	8192	-8191	8192	8192	254	
77639.344	1	1	0	0	895.447	965.354	819.603	4.0184	759.497	358.38	123.976	1140.22	1386.66	1576.45	1325.38	47.9327	1140.3	608.096	245.5	2009.95	26.316	215.298	25.430	301.241	201.199	204.584	212.066	200.417	8192	-8191	8192	8192	254	
77639.398	1	1	0	0	965.311	989.739	881.988	3.83654	752.455	359.938	105.833	1140.79	1431.51	1600.61	1386.36	47.1875	1106.46	618.139	231.053	2006.95	28.121	214.772	25.768	225.660	202.325	207.102	209.606	201.549	8192	-8191	8192	8192	254	
77639.445	1	1	0	0	962.831	989.419	895.501	1.89363	744.43	355.017	121.817	1114.1	1440.04	1621.97	1397.81	47.476	1122.34	616.125	244.418	2004.71	28.099	215.607	26.429	230.084	201.207	204.190	210.529	203.629	8192	-8191	8192	8192	254	
77639.516	1	1	0	0	953.064	975.814	870.372	3.45497	757.814	370.587	114.015	1130.25	1409.95	1594.55	1380.23	45.8606	1121.83	616.115	232.024	1987.61	25.803	216.191	23.877	123.502	201.602	207.585	208.101	201.857	8192	-8191	8192	8192	254	
77639.562	1	1	0	0	939.481	969.876	877.643	4.83536	762.097	368.433	105.399	1151.43	1429.38	1600.19	1378.08	48.0577	1152.38	615.861	245.168	2035.04	26.055	214.293	24.266	261.106	202.349	205.693	202.027	203.415	8192	-8191	8192	8192	254	
77639.609	1	1	0	0	950.058	945.183	903.773	3.30776	759.289	382.679	113.669	1124.75	1436.66	1604.85	1411.79	57.774	1134.3	634.476	252.173	2017.63	27.165	216.411	27.527	129.609	201.252	202.285	205.701	201.532	8192	-8191	8192	8192	254	
77639.656	1	1	0	0	925.537	933.726	868.225	2.82716	741.55	381.184	121.328	1110.81	1431.49	1593.42	1397.96	79.7596	1154.8	648.702	272.24	2019.37	26.661	214.535	26.104	212.524	202.448	205.794	204.496	201.726	8192	-8191	8192	8192	254	
77639.703	1	1	0	0	916.527	942.357	880.065	5.62551	749.186	356.758	106.756	1147.93	1462.14	1629.33	1423.15	104.591	1189.9	688.389	302.688	2094.66	26.178	217.119	26.017	306.223	201.846	203.636	204.963	201.161	8192	-8191	8192	8192	254	
77639.758	1	1	0	0	947.803	936.415	848.928	6.56586	760.862	368.681	115.941	1130.65	1511.88	1667.87	1442.03	128.798	1232.34	707.442	315.139	2082.39	26.962	213.204	27.264	314.873	202.527	204.956	204.913	201.183	8192	-8191	8192	8192	254	
77639.758	1	1	0	0	955.644	957.047	871.644	5.2197	754.703	348.506	122.066	1135.48	1512.1	1673.58	1447.92	133.779	1214.49	690.058	326.784	2053.8	26.359	214.492	25.488	19.239	202.082	205.264	202.443	202.019	8192	-8191	8192	8192	254	
77639.805	1	1	0	0	937.705	979.954	896.971	2.11829	762.733	356.868	109.73	1144.31	1488.47	1670.19	1454.36	110.856	1204.29	669.481	287.904	2048.35	27.063	216.357	25.371	168.406	200.868	208.052	211.954	202.234	8192	-8191	8192	8192	254	
77639.875	1	1	0	0	952.591	948.504	831.617	3.60713	740.87	357.916	120.561	1097.38	1457.54	1640.35	1407.82	82.1971	1139.85	654.144	275.625	2021.3	26.494	216.227	25.136	146.542	202.913	205.997	203.436	201.388	8192	-8191	8192	8192	254	
77639.922	1	1	0	0	942.694	962.472	864.074	6.35341	750.411	371.266	108.017	1151.12	1456.93	1628.6	1413.66	76.8221	1133.47	640.346	255.808	2031.58	26.913	212.865	25.316	154.828	202.042	204.074	209.831	202.594	8192	-8191	8192	8192	254	
77639.969	1	1	0	0	966.899	971.3	870.528	4.60283	749.924	345.879	108.183	1103.89	1451.58	1603.12	1396.54	63.1058	1153.25	627.341	264.034	2000.45	27.785	214.975	25.424	230.348	200.164	203.161	212.800	202.694	8192	-8191	8192	8192	254	
77640.016	1	1	0	0	952.288	994.369	912.597	6.06448	759.808	379.76	104.803	1105.23	1460.75	1631.33	1396.78	61.7692	1149.28	629.812	261.399	2003.44	26.608	215.177	25.131	280.675	201.161	206.335	215.475	201.247	8192	-8191	8192	8192	254	
77640.062	1	1	0	0	939.44	942.523	880.62	8.39925	769.705	386.64	112.636	1118.49	1427.5	1600.62	1419.3	73.8413	1166.99	674.654	271.144	2045.83	26.499	215.735	24.374	96.263	201.999	208.070	204.209	201.880	8192	-8191	8192	8192	254	
77640.117	1	1	0	0	946.279	952.752	887.396	12.6671	738.613	362.101	112.521	1155.54	1486.66	1642.68	1431.81	126.625	1195.62	708.077	331.918	2115.11	26.372	213.883	26.316	185.252	201.748	205.029	204.718	203.122	8192	-8191	8192	8192	254	
77640.164	1	1	0	0	956.912	952.802	895.225	7.27864	748.675	384.599	118.932	1154.81	1557.43	1700.11	1511.43	193.077	1267.54	799.038	418.625	2220.03	25.839	218.325	25.040	205.015	200.349	203.517	211.449	199.961	8192	-8191	8192	8192	254	
77640.211	1	1	0	0	954.99	972.506	887.586	18.0742	741.679	367.197	113.808	1127.47	1632.4	1823.33	1608.1	277.192	1374.52	866.462	485.312	2243.94	27.773	215.164	25.505	150.629	201.782	205.960	211.676	200.912	8192	-8191	8192	8192	254	
77640.258	1	1	0	0	941.459	970.706	862.394	14.4336	763.889	379.607	114.81	1162.93	1691.81	1884.93	1641.24	339.005	1421.87	909.197	529.812	2306.21	26.499	214.714	27.123	160.393	201.338	206.711	197.927	201.302	8192	-8191	8192	8192	254	
77640.305	1	1	0	0	973.355	958.291	854.211	12.6442	756.139	348.736	115.641	1138.69	1732.99	1893.44	1671.47	346.793	1434.67	914.106	548.553	2310.48	27.435	214.957	24.000	313.390	200.874	208.486	200.755	202.516	8192	-8191	8192	8192	254	
77640.375	1	1	0	0	930.066	978.808	849.174	19.0702	759.806	375.81	116.312	1115.48	1742.05	1906.66	1667.88	371.697	1454.74	932.966	559.178	2307.54	25.410	213.925	26.363	174.582	201.778	207.627	202.730	202.107	8192	-8191	8192	8192	254	
77640.430	1	1	0	0	976.952	931.399	900.87	12.3088	732.874	366.401	135.855	1118.64	1765.59	1916.49	1690.91	381.611	1460.63	947.067	582.029	2336.82	25.057	216.026	24.450	121.610	201.602	204.375	210.256	200.909	8192	-8191	8192	8192	254	
77640.477	1	1	0	0	919.9	964.212	875.497	8.03995	743.063	356.459	116.808	1120.46	1757.78	1927.19	1714.12	401.053	1475.8	962.125	587.346	2318.69	28.266	215.661	26.843	260.050	202.335	207.296	197.550	200.719	8192	-8191	8192	8192	254	
77640.523	1	1	0	0	960.166	959.779	886.107	8.15363	718.427	360.616	122.107	1092.22	1782.47	1901.12	1725	383.899	1445.86	954.846	593.644	2309.67	27.052	214.193	25.246	280.814	203.387	205.543	209.794	203.016	8192	-8191	8192	8192	254	
77640.523	1	1	0	0	946.648	959.321	846.075	11.3282	751.051	344.734	107.705	1089.38	1767.65	1909.26	1719.61	426.303	1472.01	972.433	610.014	2335.89	27.837	215.358	24.187	201.105	200.224	209.692	213.599	200.702	8192	-8191	8192	8192	254	
77640.570	1	1	0	0	945.439	936.857	880.392	8.60119	738.736	377.996	129.76	1121.24	1771.42	1940.09	1736.2	414.712	1473.25	1003.6	603.216	2359.44	26.212	217.098	25.146	217.860	203.305	204.949	200.816	202.044	8192	-8191	8192	8192	254	
77640.617	1	1	0	0	950.681	917.116	922.535	31.5243	739.747	372.237	123.445	827.278	1804.2	1955.98	1773.71	432.005	1481.37	952.543	565.736	1810.38	28.228	212.828	25.362	95.279	203.636	203.836	211.374	203.224	8192	-8191	8192	8192	254	
77640.664	1	1	0	0	490.705	272.993	159.617	12.129	31.6747	4.78971	5.39637	12.3177	995.875	655.514	411.236	153.889	188.558	151.231	137.74	159.361	25.492	214.483	25.967	112.512	196.375	185.592	359.463	231.733	8192	-8191	8192	8192	254	
77640.734	1	1	0	65536	2.088	2.14567	7.16513	3.44239	14.6789	218.889	79.6364	0	128.433	139.601	141.216	269.135	1194.81	8583.62	32625.9	32767	319.134	17.799	296.652	219.949	131.231	129.985	144.396	180.000	8192	-8191	8192	8192	254	
77640.789	1	1	0	65536	0	0	0	0	0	0	0	0	32767	32767	32767	32767	32767	32767	32767	32767	180.000	180.000	180.000	180.000	180.000	180.000	180.000	180.000	8192	-8191	8192	8192	254	
77640.836	1	1	0	65536	0	0	0	0	0	0	0	0	32767	32767	32767	32767	32767	32767	32767	32767	180.000	180.000	180.000	180.000	180.000	180.000	180.000	180.000	8192	-8191	8192	8192	254	
77640.883	1	1	0	65536	0	0	0	0	0	0	0	0	32767	32767	32767	32767	32767	32767	32767	32767	180.000	180.000	180.000	180.000	180.000	180.000	180.000	180.000	8192	-8191	8192	8192	254	
77640.930	1	1	0	65536	0	0	0	0	0	0	371.896	10.3696	32767	32767	32767	32767	32767	32767	24489.4	2609.61	180.000	180.000	180.000	180.000	180.000	180.000	291.018	103.145	8192	-8191	8192	8192	254	
77640.977	1	1	0	65536	30.612	9.61247	36.4564	26.5099	69.5693	48.6282	30.0692	26.27	1912.2	2059.77	2429.94	2803.08	3165.37	3618.71	3898.56	4128.47	297.229	304.855	334.681	96.885	0.027	4.412	109.655	305.500	8192	-8191	8192	8192	254	
77641.055	1	1	0	0	46.5126	48.0892	42.3947	31.8877	82.5876	13.8395	31.1001	56.491	4298.07	4280.43	4185.27	4070.72	4134.57	4144.42	4197.72	4256.2	127.509	286.224	291.146	178.221	135.213	234.150	249.041	104.017	8192	-8191	8192	8192	254	
77641.102	1	1	0	0	38.1922	25.5006	34.929	63.2483	70.1254	1.4966	48.1019	59.9621	4272.75	4343.56	4350.63	4451.95	4545.78	4576.13	4615	4682.13	166.044	228.521	85.038	307.690	113.587	322.891	117.258	128.352	8192	-8191	8192	8192	254	
77641.148	1	1	0	0	20.249	35.7762	70.9075	61.1769	30.3017	48.6799	72.0864	29.8067	4745.79	4826.58	4854.82	4927.4	5172.81	5197.14	6079.63	5751.38	321.907	128.937	288.389	64.096	281.642	34.036	346.455	342.836	8192	-8191	8192	8192	254	
77641.195	1	1	0	0	46.9768	13.5958	51.0779	58.8258	2.75927	19.4988	27.3468	47.4587	4433.1	3945.12	3834.25	3448.48	3219.93	3065.62	3004.95	3041.72	131.264	103.007	245.139	8.575	193.874	305.881	83.466	270.076	8192	-8191	8192	8192	254	
77641.242	1	1	0	0	281.561	32.9392	58.9723	37.9806	42.0088	33.4675	39.1795	31.1856	8971.82	19576.6	17328.6	13032.7	8502.09	4851.07	2648.88	1690.89	121.342	46.921	131.765	104.797	327.585	298.864	310.982	234.910	8192	-8191	8192	8192	254	
77641.289	1	1	0	0	19.8922	35.5254	25.9369	10.1669	19.5566	13.6922	15.4726	4.45596	1210.25	936.332	832.341	774.216	673.312	603.591	504.423	434.962	62.340	297.058	336.575	357.460	263.292	41.919	179.897	281.660	8192	-8191	8192	8192	254	
77641.289	1	1	0	0	9.69865	26.0746	7.07578	3.79112	12.8247	12.0809	21.1894	2.27723	413.505	416.452	424.697	406.202	390.284	357.865	352.327	330.24	96.459	49.996	74.672	73.732	131.066	161.834	228.519	116.361	8192	-8191	8192	8192	254	
77641.336	1	1	0	0	12.2307	8.51626	4.86279	9.58176	19.742	4.79408	11.1804	16.7611	327.793	314.058	289.341	259.625	237.909	217.529	208.394	195.721	220.917	135.047	127.945	357.984	41.532	147.890	7.092	268.354	8192	-8191	8192	8192	254	
77641.391	1	1	0	0	5.65487	9.93732	5.99366	19.6771	6.50266	4.28153	4.29378	6.37916	199.784	181.779	171.279	166.904	159.885	159.986	150.649	152.062	328.788	347.737	196.984	188.301	145.111	95.362	331.759	51.947	8192	-8191	8192	8192	254	
77641.438	1	1	0	0	5.28318	4.23502	3.88967	10.6246	5.11227	2.37599	5.84824	2.43322	149.596	145.803	147.385	145.106	140.923	138.861	140.635	145.337	115.402	102.922	318.748	107.901	179.300	152.063	206.785	181.483	8192	-8191	8192	8192	254	
77641.508	1	1	0	0	5.95366	14.707	3.30388	9.36193	10.255	13.0883	4.1949	64.0311	144.582	148.75	148.832	141.784	161.115	182.279	180.284	312.827	116.597	288.238	80.132	137.525	190.026	168.940	159.017	205.713	8192	-8191	8192	8192	254	
77641.555	1	1	0	0	55.8964	78.0252	89.1804	2.44363	124.016	91.9494	43.9914	325.435	318.697	395.457	406.875	345.091	596.51	600.601	606.577	1117.29	31.455	222.777	35.279	57.276	211.896	214.356	193.771	203.005	8192	-8191	8192	8192	254	
77641.602	1	1	0	0	244.116	250.484	218.448	9.47302	195.787	108.612	20.3061	365.53	909.269	943.442	880.192	552.88	843.135	743.279	629.375	1154.42	33.438	219.784	32.126	199.955	210.015	210.634	253.804	207.298	8192	-8191	8192	8192	254	
77641.648	1	1	0	0	232.654	265.747	227.544	34.483	230.014	104.879	21.4322	355.983	932.062	983.827	925.385	554.534	876.904	720.274	613.981	1137.82	37.455	222.064	24.901	355.354	210.954	200.404	246.877	205.855	8192	-8191	8192	8192	254	
77641.695	1	1	0	0	266.351	236.092	259.202	19.2654	215.716	103.331	45.6398	331.592	934.817	974.635	933.346	558.019	877.986	744.49	624.13	1166.95	33.561	222.014	34.466	117.575	209.436	217.479	213.000	206.119	8192	-8191	8192	8192	254	
77641.742	1	1	0	0	271.641	258.67	247.163	13.0573	219.305	104.169	27.2225	335.565	970.144	988.851	926.87	555.74	865.087	718.197	586.053	1115.84	34.002	223.173	29.869	117.041	208.602	221.421	181.327	205.514	8192	-8191	8192	8192	254	
77641.797	1	1	0	0	271.932	271.164	239.924	18.9293	237.467	108.801	19.4153	336.708	921.034	954.798	891.043	509.332	817.389	662.409	516.731	1015.02	32.730	220.729	31.612	66.596	208.426	217.924	256.707	207.212	8192	-8191	8192	8192	254	
77641.844	1	1	0	0	238.298	248.997	239.068	6.18736	188.722	114.449	22.5737	327.5	830.144	846.822	781.976	384.986	672.062	524.038	393.005	848.236	33.784	220.327	36.114	349.691	208.689	207.682	219.866	204.177	8192	-8191	8192	8192	254	
77641.914	1	1	0	0	209.639	253.468	190.635	7.5745	178.472	79.2305	29.5814	306.995	639.332	656.062	585.481	235.471	501.966	362.139	256.466	712.173	34.968	222.681	31.570	184.386	205.006	220.332	218.697	207.925	8192	-8191	8192	8192	254	
77641.961	1	1	0	0	212.674	225.132	207.877	9.91229	165.684	106.958	25.6185	282.901	507.99	531.582	466.5	167.832	416.764	308.981	201.822	633.476	31.966	219.922	32.042	290.928	202.792	207.427	217.019	204.248	8192	-8191	8192	8192	254	
77642.008	1	1	0	0	222.929	206.605	207.182	8.16002	173.367	90.3899	35.8766	272.802	456.149	490.481	443.668	121.923	376.639	258.663	156.976	594.505	34.864	222.966	31.259	323.001	205.871	216.575	194.628	208.552	8192	-8191	8192	8192	254	
77642.055	1	1	0	0	217.091	220.693	195.968	2.07727	173.179	80.051	33.3041	279.102	406.731	437.519	379.423	78.1058	333.856	208.933	118.486	567.438	31.374	218.030	34.890	177.964	202.771	207.816	203.430	206.940	8192	-8191	8192	8192	254	
77642.055	1	1	0	0	228.274	229.568	194.08	2.3017	173.488	86.3209	22.3494	281.836	380.356	432.481	366.49	67.6058	318.029	201.688	99.6538	548.87	30.467	219.843	31.050	50.375	208.510	207.533	219.499	212.255	8192	-8191	8192	8192	254	
77642.109	1	1	0	0	221.606	219.034	220.239	4.59162	172.062	93.5651	35.7351	285.662	377.418	407.505	367.745	57.3221	312.668	203.149	108.644	562.269	31.394	221.316	31.454	40.724	207.701	210.319	207.987	210.816	8192	-8191	8192	8192	254	
77642.156	1	1	0	0	214.663	199.332	196.507	6.49196	191.171	100.965	27.0572	280.529	382.74	405.611	356.067	63.7596	317.029	204.827	109.505	547.423	30.550	219.786	28.337	249.487	208.340	216.472	233.705	210.058	8192	-8191	8192	8192	254	
77642.203	1	1	0	0	211.706	207.52	203.043	6.88943	179.895	94.6998	35.848	293.966	375.49	407.308	366.841	67.9808	317.548	202.524	117.764	551.841	31.968	219.876	30.469	195.871	207.223	212.536	205.821	203.812	8192	-8191	8192	8192	254	
77642.273	1	1	0	0	225.992	224.003	216.811	7.68493	182.138	94.9124	26.5183	290.501	378.014	413.212	386.688	68.6394	324.889	213.144	116.591	564.601	30.773	219.236	31.761	339.986	206.288	215.123	205.262	207.205	8192	-8191	8192	8192	254	
77642.320	1	1	0	0	221.823	210.077	210.95	4.65143	179.624	96.2426	33.3572	293.084	392.529	417.029	380.548	68.6587	328.851	209.024	123.072	572.014	32.567	218.543	33.579	17.755	204.613	204.089	199.083	206.985	8192	-8191	8192	8192	254	
77642.367	1	1	0	0	223.459	237.457	199.606	2.06432	178.521	89.7585	29.3904	284.893	394.861	429.385	363.274	70.8798	332.303	216.053	117.832	549.135	33.512	219.521	30.971	273.951	208.609	213.493	204.476	207.643	8192	-8191	8192	8192	254	
77642.422	1	1	0	0	214.926	212.107	200.854	4.34635	195.278	81.9374	20.826	304.701	390.337	409.317	368.832	75.2885	346.317	215.529	121.76	568.798	33.670	222.883	31.693	207.002	207.926	207.866	212.965	207.387	8192	-8191	8192	8192	254	
77642.469	1	1	0	0	221.505	218.907	208.666	2.26534	186.048	96.2769	28.5202	294.889	398.769	420.832	377.264	79.7644	341.928	235.548	132.543	569.269	31.855	219.993	33.380	89.752	206.139	209.303	221.309	207.113	8192	-8191	8192	8192	254	
77642.516	1	1	0	0	229.623	211.172	193.407	6.44124	176.035	97.3908	27.4887	283.693	410.88	441.01	395.894	91.5913	355.043	237.779	152.365	590.413	32.213	220.340	26.361	1.872	205.231	208.817	229.549	205.953	8192	-8191	8192	8192	254	
77642.586	1	1	0	0	228.873	209.906	209.371	3.30323	189.893	101.502	18.7852	270.263	416.832	437.567	404.216	98.1731	360.038	234.245	132.726	566.486	31.576	222.087	27.653	63.968	205.451	211.435	212.924	208.401	8192	-8191	8192	8192	254	
77642.633	1	1	0	0	218.372	216.038	198.589	3.35408	176.426	92.9175	42.1368	281.177	394.803	424.12	380.721	70.5865	324.231	204.957	115.207	559.226	33.566	218.528	28.066	92.374	205.893	205.469	206.935	209.222	8192	-8191	8192	8192	254	
77642.680	1	1	0	0	208.351	227.432	197.934	6.01161	178.216	92.2654	30.2207	273.703	373.688	415.091	355.111	51.0769	308.322	190.101	99.875	540.37	35.582	221.477	35.395	305.330	204.277	208.421	207.468	208.353	8192	-8191	8192	8192	254	
77642.734	1	1	0	0	215.284	204.508	200.082	8.30602	180.738	98.2632	33.5331	282.672	363.231	380.159	350.389	51.3173	306.457	190.375	95.6442	536.269	30.950	221.221	33.478	305.652	203.552	207.544	230.129	209.014	8192	-8191	8192	8192	254	
77642.781	1	1	0	0	218.294	217.17	191.888	4.34885	161.57	91.8736	25.2163	294.344	359.159	389.24	346.63	44.5433	294.005	183.269	93.5481	539.365	31.257	224.356	29.585	109.096	212.174	214.035	223.323	203.507	8192	-8191	8192	8192	254	
77642.828	1	1	0	0	217.432	206.322	209.281	5.03357	176.817	91.5152	29.058	265.174	358.938	389.553	349.986	47.6731	295.918	180.942	93.0817	519.125	33.543	222.641	29.772	250.392	208.264	215.748	196.040	205.309	8192	-8191	8192	8192	254	
77642.828	1	1	0	0	214.766	206.726	210.769	5.52704	194.782	94.2878	33.1089	269.903	366.841	387.471	348.284	41.7788	311.74	197.587	92.9663	534.966	37.102	219.505	32.492	277.395	209.832	209.771	220.273	205.179	8192	-8191	8192	8192	254	
77642.875	1	1	0	0	208.508	215.62	196.432	3.22533	194.175	95.1489	38.1908	286.63	371.986	389.356	348.567	47.2115	309.149	185.702	96.7788	529.212	34.145	220.306	30.062	84.146	202.096	211.292	211.387	205.495	8192	-8191	8192	8192	254	
77642.945	1	1	0	0	233.759	204.948	206.494	4.75017	170.499	95.605	23.4731	293.503	367.745	385.74	340.923	42.7115	303.471	194.889	91.2308	546.971	32.214	221.000	28.797	304.807	206.045	212.354	219.916	203.776	8192	-8191	8192	8192	254	
77642.992	1	1	0	0	214.29	204.991	195.66	7.16421	180.144	92.4553	22.9943	292.047	355	387.062	343.173	40.5433	302.101	186.332	90.7885	538.149	36.186	222.770	28.905	111.998	206.663	212.288	206.430	204.495	8192	-8191	8192	8192	254	
77643.039	1	1	0	0	229.761	208.842	195.738	4.65368	174.519	90.1049	31.8813	273.008	375.514	397.865	343.409	47.7644	304.159	181.168	91.0288	529.995	35.556	222.382	30.192	220.303	202.142	208.737	211.472	203.597	8192	-8191	8192	8192	254	
77643.086	1	1	0	0	225.859	211.227	190.472	6.38993	176.736	91.6969	24.1597	284.086	375.635	402.731	351.072	44.1394	309.091	188.221	92.4135	537.279	30.338	224.206	27.151	215.939	207.020	215.615	207.917	205.455	8192	-8191	8192	8192	254	
77643.141	1	1	0	0	216.282	216.306	200.25	1.01484	196.364	99.128	27.484	287.648	359.817	389.043	352.851	47.8365	314.293	193.572	95.1875	537.793	33.521	223.831	34.055	38.814	208.161	214.936	220.245	204.783	8192	-8191	8192	8192	254	
77643.188	1	1	0	0	221.758	222.022	187.055	0.933718	176.397	95.4742	29.1069	285.573	374.659	397.692	347.553	48.2308	310.361	191.404	90.7404	531.692	33.868	223.014	32.893	100.065	205.467	213.415	200.100	208.141	8192	-8191	8192	8192	254	
77643.234	1	1	0	0	213.415	217.38	201.699	4.3903	190.192	99.3379	34.8963	302.876	360.841	392.327	361.452	48.4183	316.524	199.74	99.1779	536.462	34.519	220.916	32.216	85.717	206.694	206.535	221.186	205.693	8192	-8191	8192	8192	254	
77643.281	1	1	0	0	215.709	211.175	207.477	3.07666	188.051	93.9857	41.785	290.967	360.986	394.582	360.615	48.5337	305.918	193.764	106.798	541.928	33.335	222.315	30.567	73.312	211.187	212.024	228.470	206.597	8192	-8191	8192	8192	254	
77643.328	1	1	0	0	213.19	207.251	200.027	0.61636	186.556	81.8434	35.5661	278.362	369.822	396.322	361.38	51.0481	330.207	184.13	100.163	535.115	31.889	221.397	27.899	242.441	207.031	211.906	212.569	204.106	8192	-8191	8192	8192	254	
77643.383	1	1	0	0	218.652	223.495	204.341	2.40408	186.632	89.6094	27.7881	287.966	361.534	406.207	353.788	54.4471	313.99	191.01	101.769	547.115	36.108	221.856	35.104	47.384	207.951	213.703	207.513	207.428	8192	-8191	8192	8192	254	
77643.453	1	1	5	0	229.22	224.649	206.641	1.65456	180.022	95.3508	30.988	285.022	378.337	407.13	363.154	50.9423	309.486	198.889	100.365	542.548	35.566	220.650	30.734	147.715	206.612	209.944	218.632	206.133	8192	-8191	8192	8192	254	
77643.500	1	1	0	0	220.057	206.725	204.454	0.749537	183.374	94.7096	30.6195	285.274	367.365	399.529	355.476	47.149	311.769	188.779	91.3846	542.942	30.317	219.997	31.720	226.719	207.850	212.614	217.080	206.116	8192	-8191	8192	8192	254	
77643.547	1	1	0	0	213.785	208.148	209.685	3.1467	195.026	87.623	27.2198	271.561	361.284	394.077	350.611	44.7067	315.562	185.745	91.5721	538.534	32.646	216.488	26.315	327.791	209.974	210.431	216.683	205.272	8192	-8191	8192	8192	254	
77643.594	1	1	0	0	222.685	212.009	200.829	3.23716	178.594	92.1358	29.5606	287.066	374.058	385.423	343.731	42.9615	306.365	192.591	95	525	34.506	217.478	28.718	254.270	207.484	209.042	220.246	208.394	8192	-8191	8192	8192	254	
77643.594	1	1	0	0	215.988	215.585	206.201	3.07388	170.644	96.6439	29.3285	273.192	360.606	379.846	353.197	44.2644	298.505	185.087	90.0529	522.231	35.234	219.965	31.140	278.989	207.373	209.051	213.428	209.144	8192	-8191	8192	8192	254	
77643.641	1	1	0	0	211.684	219.525	202.578	4.60953	172.395	90.6413	29.736	272.613	361.067	386.779	351.606	43.0769	297.904	192.49	94.5673	528.082	29.253	221.531	29.664	22.633	209.063	208.729	212.694	203.396	8192	-8191	8192	8192	254	
77643.711	1	1	0	0	208.826	218.849	192.42	3.3942	190.902	95.1781	24.146	294.295	355.721	380.548	342.683	41.5385	307.817	186.615	92.8269	524.75	35.906	221.069	34.611	300.348	208.629	213.516	218.314	205.995	8192	-8191	8192	8192	254	
77643.766	1	1	0	0	226.54	233.629	193.209	3.45058	194.644	93.7336	35.1743	287.029	361.663	399.798	346.889	44.9183	310.51	189.245	93.9279	537.673	28.684	221.925	30.568	304.593	205.267	212.473	215.158	207.016	8192	-8191	8192	8192	254	
77643.812	1	1	0	0	240.961	211.651	207.598	7.40414	176.712	98.9061	30.7975	273.651	374.01	374.639	355.524	39.1779	294.668	183.394	89.8269	528.466	32.998	218.411	31.363	244.516	206.109	211.805	226.227	206.910	8192	-8191	8192	8192	254	
77643.859	1	1	0	0	234.592	216.976	204.156	3.71293	185.995	89.771	29.8903	256.695	365.375	399.082	361.51	43.2548	298.803	187.668	94.2067	513.678	35.232	224.276	27.942	67.250	208.643	213.486	192.078	208.073	8192	-8191	8192	8192	254	
77643.906	1	1	0	0	214.475	222.026	193.772	2.88761	191.931	98.3165	30.0164	273.562	361.933	403.303	344.582	44.3173	310.005	194.817	98.0769	533.423	32.766	219.475	30.962	308.539	209.150	208.126	216.062	213.110	8192	-8191	8192	8192	254	
77643.953	1	1	0	0	218.537	228.619	198.791	3.55474	184.977	82.9435	31.0551	278.558	365.649	402.038	347.192	41.7548	304.995	194.562	101.76	534.106	31.892	221.756	30.943	180.803	205.367	217.356	213.637	209.133	8192	-8191	8192	8192	254	
77644.000	1	1	0	0	192.528	208.056	206.549	2.18817	188.816	104.547	37.9116	297.412	357.197	391.01	345.865	44.8798	316.611	191.163	102.49	543.74	35.230	221.009	32.651	32.574	209.335	215.331	201.264	203.453	8192	-8191	8192	8192	254	
77644.047	1	1	0	0	213.519	230.339	215.626	2.66686	173.792	91.2401	26.947	286.492	368.577	399.49	361.548	47.4808	308.534	187.726	103.389	544.673	35.841	220.604	31.943	35.826	204.253	211.300	201.448	210.931	8192	-8191	8192	8192	254	
77644.125	1	1	0	0	226.007	218.002	195.682	4.97716	190.537	88.8409	32.6658	273.115	364.774	396.952	351.534	47.2212	310.111	183.846	100.611	539.519	34.384	219.669	28.462	272.083	210.652	212.868	218.889	204.767	8192	-8191	8192	8192	254	
77644.172	1	1	0	0	214.088	225.565	199.001	2.29268	171.563	95.3325	28.499	283.647	353.327	383.365	355.659	46.7933	310.115	188.731	94.7644	542.293	30.539	222.760	31.478	296.009	204.007	214.704	219.563	207.622	8192	-8191	8192	8192	254	
77644.219	1	1	0	0	236.459	225.292	183.177	0.892779	174.241	98.4956	30.9717	272.313	368.361	405.413	348.25	47.3125	302.582	196.683	100.317	537.726	33.487	222.700	32.974	176.118	210.975	205.226	209.528	207.768	8192	-8191	8192	8192	254	
77644.266	1	1	0	0	201.138	235.863	207.313	1.88066	183.139	96.3768	35.3301	307.838	369.577	403.798	356.01	48.4712	308.226	195.957	98.5962	561.327	32.500	222.657	32.675	331.060	205.584	205.738	209.175	211.466	8192	-8191	8192	8192	254	
77644.312	1	1	0	0	216.52	195.924	210.006	3.19565	183.172	89.8575	20.2671	271.708	368.019	381.269	358.659	45.7356	309.894	190.885	92.524	524.341	30.772	221.973	31.965	164.041	209.569	209.014	215.123	204.937	8192	-8191	8192	8192	254	
77644.359	1	1	0	0	206.856	220.818	206.785	5.55036	183.05	89.0436	30.0787	284.572	357.385	389.375	350.947	46.4952	307.365	183.798	94.6154	541.923	33.271	220.053	31.792	42.086	204.594	209.733	221.379	207.242	8192	-8191	8192	8192	254	
77644.359	1	1	0	0	207.64	231.876	200.798	2.64545	174.573	103.5	18.7807	285.553	353.154	390.341	355.466	47.0721	302.769	196.159	92.3654	542.115	34.580	221.175	32.278	336.863	203.697	212.354	227.646	208.111	8192	-8191	8192	8192	254	
77644.406	1	1	0	0	214.766	220.169	199.697	2.35447	178.518	88.3146	28.0369	272.122	366.875	401.712	348.438	43.7981	295.202	188	96.0144	525.976	33.272	221.454	37.519	345.461	207.819	204.723	216.538	209.892	8192	-8191	8192	8192	254	
77644.484	1	1	0	0	212.233	226.316	211.064	1.16459	183.434	92.0038	34.5505	293.933	363.394	387.928	350.635	44.8462	309.774	194.038	90.0288	542.971	34.679	222.046	32.137	158.456	208.850	208.792	219.727	206.494	8192	-8191	8192	8192	254	
77644.531	1	1	0	0	207.296	216.047	197.191	2.86357	182.706	91.9484	32.0515	279.017	356.428	398.293	344.048	48.3077	311.101	190.423	97.9375	533.274	32.345	222.542	32.227	265.329	203.092	212.083	215.994	205.745	8192	-8191	8192	8192	254	
77644.578	1	1	0	0	227.037	223.987	195.132	3.17743	183.712	99.9632	29.1623	289.815	370.587	398.51	346.817	46.8654	311.894	188.346	97.649	538.755	32.509	218.416	30.688	212.021	210.874	215.985	208.939	208.746	8192	-8191	8192	8192	254	
77644.625	1	1	0	0	220.585	228.605	210.99	3.28524	178.054	93.3536	23.0203	286.791	375.856	397.774	357.957	45.6971	309.918	191.875	92.625	544.764	32.540	219.663	28.471	92.978	205.620	210.790	206.571	206.697	8192	-8191	8192	8192	254	
77644.672	1	1	0	0	225.264	217.322	207.683	5.47803	179.395	93.6054	31.786	280.279	372.962	404.163	338.159	45.0913	308.923	188.087	98.6106	533.918	34.696	223.029	31.190	291.386	207.301	210.771	204.652	206.124	8192	-8191	8192	8192	254	
77644.727	1	1	0	0	218.638	227.258	212.094	5.56366	183.646	99.9116	32.4359	286.591	363.962	392.24	344.188	43.3606	312.106	185.966	93.6394	547.038	33.339	222.253	30.886	42.324	208.326	217.223	220.527	209.737	8192	-8191	8192	8192	254	
77644.773	1	1	0	0	234.412	227.682	182.733	7.06736	186.217	95.5511	33.5891	293.321	369.495	411.625	344.538	46.5	313.875	181.875	96.2163	539.332	33.363	223.406	34.600	50.937	204.863	205.773	205.877	208.979	8192	-8191	8192	8192	254	
77644.820	1	1	0	0	204.062	212.638	192.379	4.15011	191.996	95.219	29.0824	280.235	353.481	394.38	349.683	45.5385	310.688	185.635	94.9038	533.591	33.257	220.219	33.309	329.248	207.870	210.925	216.796	205.997	8192	-8191	8192	8192	254	
77644.891	1	1	0	0	205.777	211.22	205.447	3.29149	186.123	101.376	25.8844	274.043	345.697	399.38	352.288	40.2981	310.606	200.438	92.5577	528.144	34.802	218.966	34.234	265.818	206.903	203.800	221.604	206.142	8192	-8191	8192	8192	254	
77644.938	1	1	0	0	222.842	206.753	208.674	3.81476	176.89	75.9447	32.809	294.675	370.428	395.255	349.346	43.2308	302.12	193.976	95.6154	538.668	30.916	220.355	34.467	92.233	205.382	210.841	217.375	204.319	8192	-8191	8192	8192	254	
77644.984	1	1	0	0	223.789	232.706	189.766	3.30022	187.042	89.3287	32.6693	285.317	363.12	402.101	336.567	43.6538	306.558	188.755	92.5433	537.288	29.979	221.509	31.659	283.087	206.733	212.767	211.523	209.059	8192	-8191	8192	8192	254	
77645.031	1	1	0	0	230.192	219.111	198.497	1.79148	166.586	92.3631	36.627	287.633	370.678	391.144	344.298	40.9856	305.389	190.995	97.1394	542.385	35.729	218.056	30.926	1.107	208.205	206.371	211.740	207.268	8192	-8191	8192	8192	254	
77645.078	1	1	0	0	217.018	218.647	193.377	5.16818	202.105	109.848	19.5979	272.918	362.894	405.553	340.721	40.5192	317.404	192.889	91.5048	536.197	34.707	219.047	29.541	305.467	204.718	218.482	213.025	209.970	8192	-8191	8192	8192	254	
77645.133	1	1	0	0	223.834	212.125	200.027	6.15305	199.054	90.9569	29.1663	287.873	366.577	399.351	350.601	46.8173	318.308	191.567	95.8317	532.029	30.097	221.944	31.204	251.243	208.082	205.235	217.596	206.731	8192	-8191	8192	8192	254	
77645.133	1	1	0	0	220.647	206.059	195.619	6.61762	188.59	102.299	25.9513	284.984	363.279	390.024	353.591	44.5769	316.601	193.303	94.75	539.534	32.829	222.146	26.580	159.712	203.500	210.393	206.769	206.666	8192	-8191	8192	8192	254	
77645.180	1	1	0	0	210.399	219.947	182.673	6.56895	177.618	88.6343	24.7879	263.799	363.236	395.606	339.875	45.2212	297.962	177.962	92.7308	521.216	30.931	223.853	30.654	155.209	205.458	211.543	206.105	205.711	8192	-8191	8192	8192	254	
77645.227	1	1	0	0	221.059	215.197	196.967	4.81463	173.918	95.6789	29.0705	283.364	361.433	390.942	343.577	44.0865	302.673	181.308	96.4567	533.697	34.592	220.248	29.699	17.384	210.335	204.541	224.082	209.994	8192	-8191	8192	8192	254	
77645.273	1	1	0	0	210.709	231.802	201.7	0.563829	176.509	92.512	26.8733	272.707	363.49	406.812	341.885	45.625	304.26	184.716	95.8654	530.683	37.020	217.226	29.295	206.938	206.651	210.046	211.809	207.375	8192	-8191	8192	8192	254	
77645.344	1	1	0	0	205.184	215.028	196.233	2.78931	185.845	95.3121	30.4974	285.78	352.942	391.438	344.543	46.6635	305.875	180.562	91.9808	532.654	34.031	219.624	33.418	291.547	208.198	213.207	197.365	206.445	8192	-8191	8192	8192	254	
77645.391	1	1	0	0	211.711	221.795	205.969	3.62861	180.025	84.4778	26.2103	283.292	362.663	389.221	352.678	46.7067	309.389	191.62	97.875	537.337	34.616	220.268	32.630	216.889	205.348	204.479	218.074	203.696	8192	-8191	8192	8192	254	
77645.445	1	1	0	0	203.942	211.24	200.539	1.39332	161.974	99.9935	31.8076	289.576	355.577	386.966	352.288	48.7163	307.322	197.091	90.5192	541.851	28.915	222.150	30.280	178.174	209.167	210.781	210.269	207.385	8192	-8191	8192	8192	254	
77645.492	1	1	0	0	219.649	220.522	210.044	1.11902	197.497	83.6806	27.5962	289.293	373.197	396.726	344.067	48.3317	315.755	190.572	97.1635	536.476	34.351	219.279	28.271	290.907	202.844	212.127	225.294	208.420	8192	-8191	8192	8192	254	
77645.539	1	1	0	0	223.804	229.338	208.889	7.70873	165.774	90.783	27.5391	286.672	365.543	401.029	359.149	48.6971	300.279	187.587	93.8173	538.298	33.349	222.279	28.073	210.616	212.149	205.396	201.507	209.219	8192	-8191	8192	8192	254	
77645.586	1	1	0	0	221.076	221.266	196.322	2.89616	177.933	95.782	24.667	273.329	358.625	395.413	350.236	46.4375	297.774	183.87	93.625	544.553	35.137	222.084	32.216	74.482	207.092	212.417	204.768	203.625	8192	-8191	8192	8192	254	
77645.633	1	1	0	0	213.53	217.901	210.031	6.29193	199.123	91.6769	30.6518	271.645	369.865	386.284	350.591	44.8365	313.865	189.221	92.601	541.438	33.375	221.360	31.224	255.704	205.953	211.715	199.904	213.040	8192	-8191	8192	8192	254	
77645.680	1	1	0	0	215.51	211.628	211.349	5.40683	192.151	90.0416	29.0678	287.996	364.49	387.74	343.51	41.8654	307.216	189.327	97.226	543.784	29.652	221.375	30.591	49.893	205.474	208.208	231.827	208.517	8192	-8191	8192	8192	254	
77645.758	1	1	0	0	209.517	210.413	195.428	4.99176	180.864	95.4208	27.0181	288.29	365.519	387.37	345.889	42.8558	306.995	192.317	91.7692	546.255	30.472	222.492	31.121	100.444	208.995	214.141	224.819	209.700	8192	-8191	8192	8192	254	
77645.805	1	1	0	0	222.232	239.842	192.736	6.26876	187.818	75.0597	33.147	271.165	370.659	402.269	336.505	44.7067	303.654	181.471	98.1154	536.034	31.865	223.137	30.384	329.444	208.927	206.566	206.290	209.867	8192	-8191	8192	8192	254	
77645.852	1	1	0	0	227.312	218.52	197.845	5.22061	186.731	88.2306	23.5284	260.556	364.779	385.409	340.798	43.2788	306.322	187.938	88.1587	531.784	31.859	220.361	32.169	179.774	206.581	202.842	205.986	208.344	8192	-8191	8192	8192	254	
77645.898	1	1	0	0	226.163	211.122	201.535	2.59834	192.999	92.1307	25.4024	306.09	371.736	386.005	351.764	44.8606	313.462	185.697	88.3702	554.904	28.931	221.135	30.954	96.695	208.629	212.504	221.995	206.335	8192	-8191	8192	8192	254	
77645.898	1	1	0	0	231.538	238.108	198.551	3.28882	176.982	92.3992	37.9453	303.173	371.966	404	352.971	44.1635	315.63	196.053	97.5144	544.447	32.931	220.578	28.812	12.838	209.189	205.157	212.328	205.999	8192	-8191	8192	8192	254	
77645.945	1	1	0	0	216.122	203.558	192.53	2.27264	177.837	87.7855	30.0684	306.162	361.812	380.938	346.769	47.4327	303.082	181.101	89.6683	559.399	34.351	223.134	28.446	327.152	208.555	209.850	205.012	206.677	8192	-8191	8192	8192	254	
77646.016	1	1	0	0	217.589	211.916	212.991	0.468237	185.823	95.2488	30.4602	306.62	359.341	393.817	353.106	49.2308	308.49	180.986	85.9808	558.082	34.386	225.305	28.458	136.183	208.228	214.630	208.159	206.350	8192	-8191	8192	8192	254	
77646.070	1	1	0	0	215.727	218.489	204.39	3.53598	183.96	101.244	33.635	263.594	364.144	384.308	355.49	44.5865	317.216	188.135	100.764	528.317	33.647	223.519	31.144	172.123	204.396	207.692	223.555	206.551	8192	-8191	8192	8192	254	
77646.117	1	1	0	0	198.684	209.77	207.78	3.975	185.333	103.054	34.3628	285.37	364.279	376.894	356.226	51.4567	303.764	192.702	93.4087	550.49	31.861	218.508	29.633	145.725	210.492	212.352	206.214	205.340	8192	-8191	8192	8192	254	
77646.164	1	1	0	0	213.035	228.019	193.701	3.22143	201.616	76.0409	23.3275	314.299	355	406.168	338.591	44.3846	310.231	179.264	92.0913	542.144	32.249	222.217	30.240	349.506	207.667	212.771	224.600	205.695	8192	-8191	8192	8192	254	
77646.211	1	1	0	0	200.512	204.154	192.195	1.64582	185.266	97.6874	36.0768	258.275	357.538	387.832	347.837	47.3269	311.399	183.947	101.12	518.779	32.528	216.894	30.184	313.758	209.186	206.723	212.734	210.404	8192	-8191	8192	8192	254	
77646.258	1	1	0	0	194.52	210.165	206.784	1.04816	148.833	94.5636	23.1993	289.926	344.476	391.678	349.923	46.8077	289.13	191.072	90.3317	552.365	31.334	219.264	26.932	25.140	208.553	211.303	215.990	207.861	8192	-8191	8192	8192	254	
77646.305	1	1	0	0	215.595	221.995	194.317	2.40361	182.189	97.4675	28.1857	282.975	372.51	399.837	356.654	44.4231	300.909	185.284	90.1779	547.577	30.033	222.928	32.885	54.487	209.027	208.169	206.980	206.899	8192	-8191	8192	8192	254	
77646.352	1	1	0	0	219.854	231.02	204.831	5.41125	197.373	85.5264	30.6168	289.659	363.615	401.361	352.582	48.4567	309.322	182.12	90.5048	545.659	31.128	219.168	30.641	204.269	207.136	212.827	206.848	205.782	8192	-8191	8192	8192	254	
77646.406	1	1	0	0	207.129	216.457	204.495	6.39884	180.967	101.542	32.9523	287.763	358.433	380.375	346.048	45.101	301.221	185.827	94.226	540.385	33.060	222.723	29.624	308.801	208.249	211.879	214.133	211.318	8192	-8191	8192	8192	254	
77646.453	1	1	0	0	216.199	218.22	203.161	3.25636	181.366	81.5581	29.1687	277.406	369.192	398.712	355.962	43.8894	304.779	184.438	96.8269	536.697	32.121	216.735	26.886	264.006	209.028	211.508	212.509	205.860	8192	-8191	8192	8192	254	
77646.523	1	1	0	0	220.247	205.554	198.392	4.46902	194.541	92.7485	28.258	282.591	359.197	392.644	349.308	50.5144	311.019	189.067	95.024	528.558	33.279	223.813	30.128	129.415	205.719	211.059	199.326	203.291	8192	-8191	8192	8192	254	
77646.570	1	1	0	0	207.865	221.204	199.605	2.76457	182.153	99.1092	26.8806	281.882	367.303	389.125	354.837	51.0721	300.12	190.591	94.2115	529.793	33.108	218.707	31.488	298.981	200.143	213.798	217.151	206.657	8192	-8191	8192	8192	254	
77646.617	1	1	0	0	234.635	223.997	205.617	3.14195	183.918	81.7981	23.5083	305.795	371.505	401.817	350.784	46.1827	303.933	187.442	97.9327	558.159	32.148	223.030	33.177	163.759	205.400	203.061	203.094	209.128	8192	-8191	8192	8192	254	
77646.664	1	1	0	0	209.394	225.718	201.268	2.51851	198.019	94.4593	30.9611	293.922	356.947	397.875	351.505	44.5913	313.356	187.452	92.2404	541.572	31.637	220.115	33.917	269.733	204.463	209.695	210.252	204.157	8192	-8191	8192	8192	254	
77646.664	1	1	0	0	217.818	225.176	196.321	3.59821	175.967	96.9083	26.8494	287.115	373.346	398.716	346.159	49.2212	290.827	194.202	91.0577	542.764	32.385	221.581	29.831	308.869	205.777	213.718	217.940	209.921	8192	-8191	8192	8192	254	
77646.719	1	1	0	0	219.419	208.506	217.941	5.83903	176.672	93.2838	26.3141	269.72	366.827	387.697	360.312	43.0625	308.692	189.298	93.9327	530.168	34.479	220.566	29.916	72.253	207.423	214.938	207.113	210.105	8192	-8191	8192	8192	254	
77646.766	1	1	6	0	211.828	216.727	198.538	0.763015	173.032	85.9282	30.6883	306.193	368.048	386.346	350.596	42.4712	311.322	185.106	98.5577	553.471	32.383	222.822	31.129	255.064	205.890	215.480	217.793	205.708	8192	-8191	8192	8192	254	
77646.812	1	1	0	0	209	228.265	220.296	2.91934	174.423	80.5788	32.4598	277.742	366.168	393.524	358.697	46.3365	309.909	185.168	100.587	536.971	29.406	219.086	34.953	156.395	209.086	218.202	215.918	209.561	8192	-8191	8192	8192	254	
77646.883	1	1	0	0	236.808	227.462	210.742	2.81309	176.878	86.2805	26.8983	286.594	367.072	394.817	352.736	48.1827	305.572	184.75	87.8413	537.649	31.633	219.478	32.239	132.055	202.052	210.576	213.122	206.538	8192	-8191	8192	8192	254	
77646.930	1	1	0	0	226.542	212.013	197.813	1.0475	193.959	95.2237	28.1854	274.949	374.74	398.269	348.178	43.8125	310.51	192.014	94.6827	531.668	28.976	219.026	28.294	31.365	204.978	213.209	203.406	210.243	8192	-8191	8192	8192	254	
77646.977	1	1	0	0	213.128	203.209	206.47	1.8983	192.791	84.4564	35.9813	279.11	356.697	379.202	345.928	41.3029	309.99	185.534	96.9663	530.178	32.807	222.694	29.090	182.365	208.216	210.958	220.107	204.339	8192	-8191	8192	8192	254	
77647.023	1	1	0	0	215.696	216.348	196.853	1.32948	182.649	96.0817	26.3938	262.849	361.269	393.26	344.582	42.3606	316.264	193.442	88.5288	521.279	30.837	221.798	32.276	282.073	207.671	207.985	210.870	207.248	8192	-8191	8192	8192	254	
77647.070	1	1	0	0	202.259	203.845	198.988	2.01555	177.186	89.3416	34.1412	274.393	367.043	391.019	354.168	44.1538	305.524	197.962	103.587	552.438	31.373	221.938	35.944	66.941	211.433	212.214	206.968	208.230	8192	-8191	8192	8192	254	
77647.125	1	1	0	0	211.419	209.527	213.722	1.87765	198.19	99.1473	34.2274	277.473	374.981	421.49	404.668	103.337	375.861	274.428	181.351	620.226	30.830	225.374	31.375	128.702	204.346	207.394	216.611	209.432	8192	-8191	8192	8192	254	
77647.172	1	1	0	0	230.817	226.31	208.203	10.3196	179.004	95.8377	23.562	290.345	493.591	505.524	450.615	137.312	400.918	281.37	185.697	618.288	36.384	218.450	35.856	232.901	207.911	215.969	229.855	209.219	8192	-8191	8192	8192	254	
77647.219	1	1	0	0	231.207	212.309	193.954	3.28435	176.408	84.0048	30.5256	279.702	453.894	468.971	429.202	125.736	378.962	260.827	162.764	595.139	32.227	220.988	34.766	66.928	207.940	213.122	212.612	206.454	8192	-8191	8192	8192	254	
77647.289	1	1	0	0	231.87	222.125	206.171	8.31432	183.759	96.6774	45.9017	285.388	436.144	446.197	401.625	92.8942	348.413	232.51	141.635	580.183	31.522	217.780	32.200	215.994	204.063	210.712	224.482	207.479	8192	-8191	8192	8192	254	
77647.336	1	1	0	0	212.741	216.251	209.255	9.10342	177.407	95.2263	25.5035	296.344	392.861	435.038	380.01	72.0144	333.587	215.173	125.635	578.279	35.825	222.587	28.933	327.138	204.078	210.466	227.158	209.556	8192	-8191	8192	8192	254	
77647.391	1	1	0	0	222.16	217.323	192.34	3.38597	179.224	108.846	30.7663	286.118	390.75	410.659	362.159	59.5577	324.332	215.365	111.236	559.894	36.555	218.827	34.356	299.388	208.770	207.960	202.699	207.778	8192	-8191	8192	8192	254	
77647.438	1	1	0	0	237.708	209.747	191.337	6.38797	170.532	86.6016	34.6615	296.283	380.481	405.058	358.476	65.4231	312.538	203.351	110.688	549.88	32.052	222.781	30.731	259.760	202.718	204.986	216.750	211.697	8192	-8191	8192	8192	254	
77647.438	1	1	0	0	208.474	223.466	192.445	7.26212	179.003	100.473	30.4329	278.93	374.202	405.697	359.192	58.0288	311.712	211.639	100.438	542.952	35.697	219.416	28.651	50.221	206.091	210.683	218.351	208.097	8192	-8191	8192	8192	254	
77647.484	1	1	0	0	221.634	209.122	213.647	1.50644	184.702	89.2475	22.0616	260.51	374.37	409.312	368.178	61.3317	327.394	205.75	112.745	551.519	30.489	224.424	34.870	276.044	206.215	214.559	216.021	205.612	8192	-8191	8192	8192	254	
77647.531	1	1	0	0	237.655	217.415	200.115	7.61183	196.376	80.1916	27.7882	280.09	391.74	412.572	374.087	70.7644	345.957	219.361	128.298	570.317	28.301	219.569	27.361	92.329	207.618	218.332	209.282	203.228	8192	-8191	8192	8192	254	
77647.578	1	1	0	0	215.249	216.514	189.94	0.939796	188.42	97.1664	34.9944	291.046	405.933	447.596	397.721	95.8413	370.082	264.183	166.707	606.212	34.760	217.281	29.293	212.527	206.655	210.072	210.748	207.730	8192	-8191	8192	8192	254	
77647.648	1	1	0	0	212.655	225.117	216.306	8.36112	187.78	95.1308	51.2405	287.994	443.529	475.389	436.5	123.986	394.37	277.481	181.625	624.716	33.005	224.114	29.811	171.046	208.880	217.003	222.906	205.553	8192	-8191	8192	8192	254	
77647.695	1	1	0	0	235.116	224.892	192.88	5.95469	190.952	78.9981	37.5922	287.782	456.149	487.721	436.409	141.774	400.971	268.702	192.067	657.524	34.124	219.362	27.816	72.204	210.129	204.003	225.403	203.223	8192	-8191	8192	8192	254	
77647.750	1	1	0	0	205.383	233.361	195.972	2.73793	193.787	97.621	26.1863	290.661	466.538	504.582	475.111	172.082	433.25	319.236	229.135	687.264	31.792	224.083	30.439	288.689	208.257	211.858	218.936	206.146	8192	-8191	8192	8192	254	
77647.797	1	1	0	0	218.426	218.418	192.878	8.67516	161.444	88.3796	42.9814	288.135	513.188	563.433	526.058	223.591	498.952	383.567	295.702	738.197	35.984	218.735	34.596	317.919	207.048	211.062	236.423	203.505	8192	-8191	8192	8192	254	
77647.844	1	1	0	0	221.301	201.64	205.858	15.2127	179.936	101.107	27.7924	314.918	567.192	613.654	567.918	265.438	522.327	410.99	316.212	784.615	31.020	218.068	31.934	298.867	204.420	212.911	212.278	204.120	8192	-8191	8192	8192	254	
77647.891	1	1	0	0	223.093	215.78	204.871	11.6955	188.832	102.517	36.1068	293.473	592.409	619.644	563.587	259.644	526.058	399.832	309.712	765.851	35.377	223.119	26.467	128.788	207.640	205.462	196.846	209.336	8192	-8191	8192	8192	254	
77647.961	1	1	0	0	224.204	214.049	201.944	11.3244	195.32	101.449	15.832	288.274	588.841	615.654	567	255.957	519.457	403.125	303.481	767.962	35.209	226.306	31.685	3.911	212.836	214.536	224.599	208.153	8192	-8191	8192	8192	254	
77648.008	1	1	0	0	209.042	204.874	190.297	3.00322	181.713	114.38	27.9554	291.601	581.99	614.144	568.005	265.553	545.332	407.918	307.096	778.726	31.028	222.851	30.734	268.333	206.733	209.206	200.888	214.160	8192	-8191	8192	8192	254	
77648.062	1	1	0	0	241.238	244.68	203.529	5.0031	194.295	94.9066	26.555	300.21	593	628.428	578.716	269.495	535.462	418.245	320.264	786.38	31.027	222.905	32.928	344.262	203.809	206.005	240.379	204.478	8192	-8191	8192	8192	254	
77648.109	1	1	0	0	210.96	213.589	213.974	8.56552	164.152	66.2915	25.5452	70.8461	593.38	641.673	602.87	291.423	514.284	354.192	241.01	295.798	33.456	221.543	30.163	311.650	208.010	214.669	230.362	208.585	8192	-8191	8192	8192	254	
77648.156	1	1	0	0	9.49816	11.3661	10.367	7.47473	6.94993	14.2757	11.9405	11.8197	175.111	149.399	142.37	140.5	157.688	155	248.846	811.428	5.138	170.067	267.708	244.951	9.983	284.488	172.451	136.055	8192	-8191	8192	8192	254	
77648.203	1	1	0	0	107.424	333.78	85.3875	104.268	53.3292	105.278	130.1	180.243	5371.56	23036.6	26318.6	18252	13347.6	12132.6	13460.9	16141	119.196	135.127	225.283	317.390	306.310	250.704	159.400	188.179	8192	-8191	8192	8192	254	
77648.203	1	1	0	0	89.5558	38.3698	47.7351	84.6095	34.7225	108.363	74.8501	68.5571	15922.8	14688.6	13899.6	14061.9	15094.9	18843.6	21048.5	18495.8	237.176	270.472	32.619	324.361	112.246	93.033	291.032	347.390	8192	-8191	8192	8192	254	
77648.250	1	1	0	0	52.3239	180.883	45.989	19.1145	61.713	50.9384	105.211	45.7494	19111	22819.8	24969.3	19759.9	19918.1	21277.6	20248.7	18999	192.113	61.883	178.535	327.048	8.301	349.927	34.947	33.953	8192	-8191	8192	8192	254	
77648.297	1	1	0	0	38.1883	42.3007	104.199	35.4756	20.6497	29.3528	23.0064	23.7114	16603.5	15344.4	10723.6	3179.85	2070.21	1915.14	1962.42	1837.12	234.328	303.271	287.297	344.749	283.253	335.449	209.459	358.548	8192	-8191	8192	8192	254	
77648.344	1	1	0	0	19.8331	28.2663	14.005	14.6725	31.7638	23.366	19.4692	15.513	1990.32	1993.92	1891.02	1849.4	1710.49	1446.15	1349.9	1455.11	54.181	62.297	223.185	82.821	202.583	26.146	347.751	189.816	8192	-8191	8192	8192	254	
77648.422	1	1	0	0	33.7125	36.5708	11.959	28.4109	18.6615	8.9005	5.75857	30.3622	1302.16	1388.61	1291.34	1256.45	1220.11	1242.39	1243.58	1246.84	287.776	308.455	110.803	214.603	191.181	113.725	70.963	276.894	8192	-8191	8192	8192	254	
77648.469	1	1	0	0	15.796	32.2315	24.3482	6.63063	15.0732	19.6685	5.73564	37.458	1257.94	1252.44	1271.67	1293.76	1322.21	1338.42	1334.18	1355.5	21.489	343.403	158.978	296.128	138.285	267.971	239.404	74.688	8192	-8191	8192	8192	254	
77648.516	1	1	0	0	13.0139	36.696	5.10425	13.1259	20.6444	20.7014	38.9246	11.5872	1390.92	1405.91	1484.92	1614.47	1770.32	1885.53	1754.23	1373.74	288.599	289.342	43.822	86.959	71.958	288.735	305.457	184.982	8192	-8191	8192	8192	254	
77648.562	1	1	0	0	19.8378	69.2919	66.0832	29.9982	24.852	34.1638	26.7798	14.8661	1497.22	8032.27	11122.4	2968.49	2263.73	2086.48	2062.64	2031.86	176.170	97.657	203.106	288.380	230.994	353.409	244.475	5.969	8192	-8191	8192	8192	254	
77648.609	1	1	0	0	6.72588	10.8776	7.85087	40.3089	11.4446	23.52	31.5723	12.5974	2048.05	2069.66	2080.82	2080.66	2125.13	2122.08	2105.91	2138.88	21.827	99.348	24.807	25.289	316.163	58.563	298.323	137.573	8192	-8191	8192	8192	254	
77648.656	1	1	0	0	22.1537	9.20035	21.8122	31.0431	13.3555	7.25019	39.5086	5.01248	2059.03	2038.52	2024.59	2036.15	1914.46	1761.36	1734.93	1735.33	51.484	38.251	344.783	270.468	94.915	136.325	63.905	93.162	8192	-8191	8192	8192	254	
77648.703	1	1	0	0	13.3609	20.7355	8.25504	7.73697	49.0203	44.7048	52.6057	76.4207	1807.97	1922.94	2265.96	2341.75	2366.3	3162.47	7280.25	9444.07	23.779	110.346	48.001	4.104	192.859	60.683	49.228	227.134	8192	-8191	8192	8192	254	
77648.758	1	1	0	0	18.5432	70.9913	92.9445	75.4747	11.9292	60.0322	74.337	47.6196	9330.1	9419.34	9408.16	9606.42	9553.57	9609.69	9825.75	9945.08	143.355	308.361	231.567	7.155	143.988	148.133	223.848	303.186	8192	-8191	8192	8192	254	
77648.828	1	1	0	0	95.1311	95.2362	55.7289	20.5453	7.2723	58.843	66.8544	77.0734	10064.1	10110.4	10225.4	10318.3	10423.7	10551.2	10563.5	10708.1	21.741	148.956	310.844	251.290	98.989	139.911	97.566	280.108	8192	-8191	8192	8192	254	
77648.875	1	1	0	0	20.6973	36.7987	41.6627	60.6866	77.9229	156.724	61.4402	61.3047	10688.8	10824	10892.2	10950.9	11025.5	11067.2	11187.3	11581.7	74.175	340.663	286.733	256.540	42.043	67.120	140.391	222.566	8192	-8191	8192	8192	254	
77648.922	1	1	0	0	110.895	47.4054	72.0716	131.089	119.667	107.336	51.1935	82.9373	13375.6	15508.2	17231.9	17590.9	17613.2	17639.7	17734.9	17736.5	58.817	316.835	208.200	305.349	12.823	138.839	71.186	54.829	8192	-8191	8192	8192	254	
77648.969	1	1	0	0	79.7322	103.033	56.5527	116.724	59.1794	42.8	65.5624	79.7655	17780.9	17877.4	17828.6	17695.4	17655.7	17556.5	17416.7	17226.3	184.579	133.930	218.560	168.662	184.674	235.141	198.558	187.516	8192	-8191	8192	8192	254	
77648.969	1	1	0	0	81.4936	46.3135	68.8426	94.0642	148.239	45.7918	50.3954	60.6111	16969.8	16552.7	16218.3	15877.9	15400.6	15196.8	14764.7	14421.9	14.351	169.484	32.271	6.405	28.103	215.082	195.427	350.365	8192	-8191	8192	8192	254	
77649.016	1	1	0	0	22.0044	38.7834	98.3161	36.3854	1.82815	47.5425	109.064	135.211	14180.6	13986.3	13745.5	13506.3	13381.1	13252.2	13157.9	12962.9	302.666	28.111	300.861	96.643	283.065	140.658	60.665	180.386	8192	-8191	8192	8192	254	
77649.094	1	1	0	0	67.5391	21.0193	88.3025	8.29684	74.135	17.0376	43.7377	30.749	12920.6	12750	12702.6	12648.8	12654.7	12686.6	12779.3	12935.2	279.844	314.835	181.006	241.965	195.089	94.911	170.572	286.931	8192	-8191	8192	8192	254	
77649.141	1	1	0	0	106.612	39.329	37.6951	43.441	11.13	74.6832	15.7116	71.1414	13144.6	13292	13488.6	13786.4	14014.3	14234.5	14396	14625.2	20.916	145.839	182.114	312.033	280.275	87.782	289.485	265.604	8192	-8191	8192	8192	254	
77649.188	1	1	0	0	82.562	41.5487	35.5744	91.2516	63.0033	71.0792	46.8068	41.9412	14686	14825.6	14953.4	15079	15143.5	15171.1	15282.2	15336.7	5.464	121.975	74.271	288.879	348.729	25.431	30.337	48.127	8192	-8191	8192	8192	254	
77649.234	1	1	0	0	30.1127	108.512	146.398	52.2073	31.3329	55.587	34.7215	3.12101	15292.2	15186.5	6565.89	3806.52	3785.29	3806.5	3811.21	3762.64	190.004	311.802	281.373	199.473	232.281	14.409	136.225	91.895	8192	-8191	8192	8192	254	
77649.281	1	1	0	0	28.6561	87.8223	31.3176	12.4187	18.107	52.7502	50.5983	25.7278	3756.97	3736.43	3765.8	3767.96	3744.52	3769.72	3792.8	3767.13	264.016	154.685	227.521	67.270	338.355	76.277	149.171	311.450	8192	-8191	8192	8192	254	
77649.328	1	1	0	0	38.5656	13.0891	19.4267	27.9457	55.4163	45.2647	5.84831	19.3335	3834.39	3739.1	3803.05	3827.61	3832.24	3820.87	3829.75	3858.89	298.421	186.833	16.854	9.575	214.995	220.260	226.565	251.733	8192	-8191	8192	8192	254	
77649.383	1	1	0	0	31.1151	57.5551	71.9423	50.6025	55.8048	77.5242	28.039	46.1832	3849	3974.41	5786.87	5962.48	6014.25	6021.61	6052.24	6098.67	242.573	321.000	36.961	273.167	91.814	122.999	34.087	22.088	8192	-8191	8192	8192	254	
77649.430	1	1	0	0	48.9477	48.8827	38.9133	63.3318	24.8179	47.4522	53.3386	41.7041	6132.04	6191.65	6214.62	6245.7	6307.32	6373.36	6545.8	6661.08	296.700	79.191	338.436	43.087	185.246	104.672	46.605	293.000	8192	-8191	8192	8192	254	
77649.500	1	1	0	0	6.99869	25.1826	36.8646	50.078	74.64	45.3822	40.2274	73.4562	6829.24	6971.91	7018.13	7090.33	7169.6	7303.78	7473.99	7633.7	15.266	267.972	134.993	82.856	31.183	196.655	73.323	104.014	8192	-8191	8192	8192	254	
77649.547	1	1	0	0	32.7351	89.1095	53.7033	7.4415	0.814105	6.03356	14.2647	4.93101	7831.7	7870.84	2313.88	673.183	280.159	197.611	203.562	203.534	275.384	286.077	269.255	313.203	274.428	116.060	139.316	291.718	8192	-8191	8192	8192	254	
77649.594	1	1	0	0	8.11303	8.66185	3.74412	17.6544	1.331	5.47983	7.87019	5.86268	200.375	200.481	186.721	171.404	176.149	173.957	162.596	153.293	83.967	90.818	294.136	308.005	305.012	254.872	3.190	225.498	8192	-8191	8192	8192	254	
77649.641	1	1	0	0	6.32884	6.39082	2.12965	4.43182	7.21913	6.0771	3.69958	8.82134	153.938	145.24	145.053	152.082	144.457	149.308	151.351	146.596	328.671	133.445	108.402	122.915	231.126	221.133	0.927	28.948	8192	-8191	8192	8192	254	
77649.688	1	1	0	0	10.0304	1.95682	5.37616	4.22331	3.6864	11.3724	11.0001	21.7591	151.082	153.894	151.178	148.058	157.846	171.75	177.404	260.702	206.821	293.612	129.898	84.084	351.941	354.064	149.152	224.605	8192	-8191	8192	8192	254	
77649.742	1	1	0	0	24.0612	44.0936	52.6966	15.5421	52.651	14.169	22.8066	87.0811	330.024	432.01	461.197	403.837	474.865	441.558	423.736	571.346	46.952	224.483	27.109	42.191	204.525	185.450	234.783	201.841	8192	-8191	8192	8192	254	
77649.742	1	1	0	0	81.4563	66.6579	70.4192	6.51534	53.4395	32.0085	12.0775	94.3054	506.841	519.245	488.476	429.481	509.683	475.577	451.452	579.981	34.502	222.539	34.888	267.661	230.126	248.020	294.493	200.818	8192	-8191	8192	8192	254	
77649.789	1	1	0	0	65.4738	72.4181	45.2776	8.61878	57.7033	29.3226	19.3827	75.2456	521.067	521.312	530.284	425.606	509.346	473.524	456.173	593.293	26.149	222.758	42.781	73.572	201.563	147.158	253.506	212.575	8192	-8191	8192	8192	254	
77649.859	1	1	0	0	56.4921	57.6155	47.9876	7.8167	60.557	25.0184	25.0632	105.71	540.851	535.346	541.288	447.726	549.322	484.875	477.034	625.524	38.862	216.992	40.890	345.216	210.710	176.628	190.315	207.283	8192	-8191	8192	8192	254	
77649.906	1	1	0	0	66.5371	61.9676	66.272	8.16196	68.8655	15.773	20.694	104.999	568.635	555.976	552.51	471.745	541.005	515.99	490.13	622.572	37.475	211.512	32.555	344.596	222.316	225.913	246.060	202.512	8192	-8191	8192	8192	254	
77649.953	1	1	0	0	75.9	76.0102	75.4123	4.49817	52.4236	43.5933	9.62929	110.645	567.832	577.726	557.577	446.481	524.889	493.649	452.49	591.712	39.940	215.692	45.385	121.382	199.094	234.241	180.258	217.271	8192	-8191	8192	8192	254	
77650.000	1	1	0	0	56.9004	50.9803	57.9131	24.2778	67.9403	33.807	16.2076	109.208	519.803	527	503.788	416.62	510.938	452.183	413.019	537.534	39.404	216.809	41.586	156.084	216.443	215.448	172.892	215.575	8192	-8191	8192	8192	254	
77650.055	1	1	0	0	67.1629	62.9809	72.77	5.64477	39.699	23.6618	14.3422	90.2254	451.375	438.462	394.692	285.942	342.173	280.274	233.356	348.034	39.070	215.981	37.965	358.286	217.229	214.879	226.693	210.765	8192	-8191	8192	8192	254	
77650.102	1	1	0	0	59.4514	52.4275	48.8506	14.8006	53.6144	24.4788	10.6853	82.9375	285.173	287.082	254.99	171.572	231.904	185.072	142.587	272.279	31.814	234.350	37.173	318.972	208.474	218.493	235.016	210.682	8192	-8191	8192	8192	254	
77650.148	1	1	0	0	61.8091	57.5443	55.1213	3.43411	41.591	23.8621	3.6259	65.0494	198.322	191.981	172.409	83.0962	151.918	113.899	83.2019	199.293	44.570	230.064	39.568	295.732	215.732	203.015	152.925	199.421	8192	-8191	8192	8192	254	
77650.195	1	1	0	0	51.7948	55.1599	51.2809	2.48511	55.8789	16.0687	15.4445	87.1229	151.048	157.582	141.01	58.2019	128.341	96.7885	76.4471	204.572	35.521	235.867	44.210	236.099	219.995	217.802	202.421	210.005	8192	-8191	8192	8192	254	
77650.242	1	1	0	0	54.4892	53.3192	48.0295	1.87225	51.7157	26.0393	10.3601	82.6079	145.135	151.774	140.87	59.7837	135.894	97.7548	75.7692	198.12	40.844	220.167	25.870	204.574	217.428	218.324	221.544	208.696	8192	-8191	8192	8192	254	
77650.289	1	1	0	0	55.9841	71.9713	54.266	2.28815	55.2961	22.2404	5.97094	87.6767	147.625	155.812	147.308	61.5192	135.048	107.029	82.476	213.192	34.576	218.614	37.919	191.846	214.425	209.422	169.039	212.061	8192	-8191	8192	8192	254	
77650.367	1	1	0	0	53.8745	50.9276	49.9066	1.58458	53.7611	21.2703	12.0361	88.8653	150.846	159.731	148.606	63.8125	140.144	107.49	81.3125	211.067	34.235	228.885	35.101	217.786	211.897	219.217	178.534	213.252	8192	-8191	8192	8192	254	
77650.414	1	1	0	0	61.1131	53.8057	52.257	1.22055	50.1348	25.1146	6.04017	92.3097	149.423	154.611	145.74	62.1683	137.375	108.082	81.7548	199.851	43.190	237.805	34.676	181.938	217.018	221.599	323.617	205.229	8192	-8191	8192	8192	254	
77650.461	1	1	0	0	63.4256	48.8626	51.5838	2.82533	42.9222	19.1041	12.2547	93.0394	151.048	154.087	144.101	62.8798	126.293	104.442	74.6875	200.5	35.279	225.140	33.221	154.558	208.953	212.346	227.610	214.868	8192	-8191	8192	8192	254	
77650.508	1	1	0	0	55.1714	57.2354	52.4334	3.94023	53.4532	25.8972	7.38868	91.2096	139.784	141.861	129.76	47.2212	122.947	84.649	61.3221	188.692	36.122	232.900	33.650	118.764	216.854	206.984	221.764	213.085	8192	-8191	8192	8192	254	
77650.508	1	1	0	0	63.0582	50.72	53.294	4.55031	52.6286	23.3804	11.3468	81.9294	130.75	130.019	123.476	43.1394	113.481	81.0769	59.7692	183.438	45.750	235.824	29.036	263.834	215.791	207.497	224.780	212.828	8192	-8191	8192	8192	254	
77650.555	1	1	0	0	51.9411	59.308	62.3692	7.87758	59.5966	29.5364	8.84813	87.2534	125.721	132.24	121.524	47.2019	115.587	86.2644	63.7452	182.12	40.786	220.132	40.600	99.765	202.835	222.278	181.827	212.033	8192	-8191	8192	8192	254	
77650.602	1	1	0	0	53.3685	58.9027	51.2461	0.671985	50.5831	26.2381	11.3461	83.5393	134.952	137.236	120.889	45.5529	114.764	87.3894	61.6298	184.63	36.806	220.396	41.903	299.634	222.989	207.201	213.597	213.399	8192	-8191	8192	8192	254	
77650.648	1	1	0	0	53.3525	55.4836	44.2358	5.10368	49.5916	35.325	4.22931	93.0796	129.798	129.663	125.139	47.625	122.534	84.6106	57.8173	192.409	39.380	224.034	35.058	9.538	215.771	208.194	217.804	216.547	8192	-8191	8192	8192	254	
77650.727	1	1	0	0	64.748	58.713	59.335	1.77228	51.8431	22.8915	10.3707	90.0266	131.365	133.361	127.827	43.9327	111.486	83.5625	58.2163	185.38	35.713	230.909	28.551	287.574	208.782	216.550	260.196	212.772	8192	-8191	8192	8192	254	
77650.773	1	1	0	0	61.1196	56.3705	49.1984	4.37436	47.6443	26.0145	3.91344	97.1251	126.245	129.986	114.341	45.1106	118.817	81.9279	57.3462	188.529	41.711	226.878	39.989	207.028	214.633	214.980	209.212	212.667	8192	-8191	8192	8192	254	
77650.820	1	1	0	0	60.0947	57.036	46.93	7.57242	53.0024	20.9288	8.84712	82.1162	123.524	133.212	122.067	44.2692	114.505	82.8365	58.3606	189.692	41.664	227.094	25.650	163.843	198.084	218.536	213.347	212.843	8192	-8191	8192	8192	254	
77650.867	1	1	0	0	60.0315	58.5901	56.1555	8.95026	47.485	20.0159	10.5465	100.385	126.058	131.274	121.995	44.7548	109.707	85.101	56.6971	190.534	32.312	225.723	31.856	136.730	209.286	213.993	198.340	211.405	8192	-8191	8192	8192	254	
77650.914	1	1	0	0	59.2173	44.9195	44.7986	1.68761	55.6563	28.3059	2.97874	88.5281	123.317	124.601	110.106	44.9952	116.529	84.4038	57.7692	185.788	40.988	222.899	35.728	216.644	203.326	215.593	233.701	216.158	8192	-8191	8192	8192	254	
77650.961	1	1	0	0	49.4555	55.395	48.5426	6.41915	50.5836	27.0203	5.61974	88.3684	120.438	129.851	118.226	41.6827	116.216	88.976	55.9279	184.312	39.201	233.552	47.661	191.997	213.334	207.290	207.504	215.636	8192	-8191	8192	8192	254	
77651.031	1	1	0	0	60.3024	54.5302	50.8462	3.24364	54.16	23.5285	12.2829	77.1473	132.202	128.106	123.827	44.1731	115.529	90.3654	60.9279	173.856	37.376	226.890	36.024	218.086	220.364	213.579	244.073	209.212	8192	-8191	8192	8192	254	
77651.086	1	1	0	0	51.3229	57.9948	53.2311	2.99179	51.9863	25.8795	7.74441	84.618	126.409	127.635	125.038	41.1587	111.38	83.6394	54.75	184.058	36.918	228.246	45.166	100.187	217.815	207.840	190.193	215.054	8192	-8191	8192	8192	254	
77651.133	1	1	0	0	61.8901	56.3304	45.5301	2.54984	44.7938	22.9922	10.2288	80.2716	130.058	133.341	117.716	40.1298	118.99	82.6587	56.3558	174.755	42.026	229.423	40.236	274.700	224.039	224.389	213.121	211.013	8192	-8191	8192	8192	254	
77651.180	1	1	0	0	64.6067	54.1938	54.0223	4.18028	43.1172	26.4703	8.55607	73.4213	129.038	126.947	128.26	44.9038	114.817	81.3173	54.1875	182.014	38.265	232.420	38.860	37.136	211.850	235.665	215.305	205.799	8192	-8191	8192	8192	254	
77651.227	1	1	0	0	41.8811	49.6424	45.9701	2.6658	55.984	28.1791	12.8336	83.0639	120.385	128.663	122.587	43.1346	118.812	81.3558	57.8606	182.562	36.335	227.550	42.763	224.158	221.954	221.765	201.002	209.102	8192	-8191	8192	8192	254	
77651.273	1	1	0	0	60.3289	57.204	59.653	3.82156	44.2024	32.0496	7.31995	77.4138	123.75	129.788	123.019	42.5481	109.274	82.6538	57.2452	181	38.492	229.813	41.310	353.697	208.449	232.787	222.509	216.400	8192	-8191	8192	8192	254	
77651.273	1	1	0	0	52.3699	58.2345	50.2777	3.07332	42.6976	27.2634	13.103	79.4514	124.447	132.111	119.471	39.3413	114.418	82.0192	57.0048	182.399	43.363	229.088	41.856	56.000	208.366	226.979	237.890	215.243	8192	-8191	8192	8192	254	
77651.320	1	1	0	0	54.0413	59.9698	54.8289	4.81183	51.7374	25.5769	8.67638	83.7876	130.736	136.101	122.438	42.2452	113.822	79.851	54.6106	176.827	33.121	224.877	39.803	357.126	213.692	222.113	249.572	211.291	8192	-8191	8192	8192	254	
77651.367	1	1	0	0	54.7658	61.7283	62.2785	3.16914	50.1467	27.1626	8.51578	83.5933	127.745	132.062	128.332	41.0529	113.678	79.7692	54.2115	169.24	46.991	229.842	43.361	309.126	209.370	224.795	206.237	209.109	8192	-8191	8192	8192	254	
77651.422	1	1	0	0	51.6169	48.8254	44.9465	9.96171	49.2431	22.9695	8.65456	70.0469	124.442	123.856	121.505	39.2837	113.514	82.899	55.601	175.135	32.971	223.432	35.183	62.296	215.568	206.305	223.924	217.397	8192	-8191	8192	8192	254	
77651.492	1	1	0	0	55.7621	62.5792	51.9547	2.0764	49.0125	18.3557	7.8124	77.9667	125.231	134.058	117.88	44.2885	111.087	82.6587	51.0721	169.212	36.391	227.510	39.497	129.902	205.254	216.403	226.682	215.622	8192	-8191	8192	8192	254	
77651.539	1	1	0	0	59.4867	65.4094	51.2627	0.867373	47.4572	20.688	9.87778	78.4938	123.173	136.692	114.058	38.7933	106.226	79.7596	58.5529	186.279	41.649	228.604	33.668	288.592	212.701	213.551	236.652	203.438	8192	-8191	8192	8192	254	
77651.586	1	1	0	0	60.6139	60.8225	57.4231	3.85999	46.6267	30.4977	11.4826	75.818	127.495	133.01	117.029	42.5529	109.678	80.8317	54.9519	183.351	39.230	230.778	38.723	348.289	212.313	207.785	177.887	213.330	8192	-8191	8192	8192	254	
77651.633	1	1	0	0	65.5482	67.486	55.5701	4.27696	42.7856	23.982	8.21009	77.0678	125.812	131.034	121.269	36.9712	107.101	87.1875	57.0481	174.692	41.614	232.975	37.760	299.079	210.031	216.843	228.498	217.319	8192	-8191	8192	8192	254	
77651.680	1	1	0	0	54.5266	48.6151	47.6059	1.8639	52.5081	29.8714	4.32811	81.6263	122.87	129.091	127.139	40.7596	111.837	83.1779	53.2308	179.005	47.735	226.625	36.686	223.340	212.768	216.644	196.472	221.509	8192	-8191	8192	8192	254	
77651.734	1	1	0	0	61.0247	59.0595	49.7398	5.86734	43.814	29.5857	10.0404	87.904	125.841	129.995	115.909	44.6875	109.938	81.9952	51.9904	188.663	38.275	227.348	32.938	168.315	212.939	215.614	197.884	208.270	8192	-8191	8192	8192	254	
77651.805	1	1	7	0	49.1787	59.0606	55.9605	4.30133	52.3851	23.2129	4.16719	86.8092	121.577	130.529	123.827	43.6731	114.154	79.7933	53.7788	178.043	32.936	211.242	36.538	262.911	200.981	212.483	220.180	212.157	8192	-8191	8192	8192	254	
77651.852	1	1	0	0	55.7733	57.6172	55.8317	1.56473	67.6817	27.909	12.2558	81.6963	120.87	132.351	120.255	41.0481	128.135	85.1587	60.1635	178.635	43.463	229.964	40.332	117.261	215.326	214.666	194.661	213.386	8192	-8191	8192	8192	254	
77651.898	1	1	0	0	56.3634	49.0514	55.0446	0.982916	38.5597	33.2302	12.9941	89.8179	123.139	128.591	122.688	40.7933	104.644	84.7356	62.9231	185.962	46.806	228.143	33.640	174.591	203.135	225.424	187.307	213.201	8192	-8191	8192	8192	254	
77651.945	1	1	0	0	55.3138	61.1438	52.3827	3.4614	53.4718	23.9048	9.13158	85.4841	122.524	136.202	118.481	44.399	110.986	84.399	56.9663	184.88	34.223	220.691	31.080	203.639	219.041	210.546	248.503	209.585	8192	-8191	8192	8192	254	
77651.992	1	1	0	0	63.9147	53.4678	54.0539	1.11217	44.8074	33.9994	9.57695	88.1589	128.514	132.096	122.24	42.5288	116.731	90.1202	57.976	183.769	38.185	231.923	39.999	339.086	211.078	215.318	206.830	212.667	8192	-8191	8192	8192	254	
77652.047	1	1	0	0	62.5012	59.8438	50.3363	5.22932	46.5765	21.6938	8.90472	80.2487	130.87	131.856	124.264	37.7548	112.034	81.3125	52.7981	181.62	46.431	224.777	40.419	100.221	200.162	210.927	207.700	219.654	8192	-8191	8192	8192	254	
77652.047	1	1	0	0	57.4088	69.6551	52.8292	3.8275	57.53	14.1374	3.48075	79.1245	127.274	137.231	123.668	44.7212	118.058	80.6683	52.9567	188.587	50.378	235.429	29.390	86.721	221.831	203.252	193.027	214.882	8192	-8191	8192	8192	254	
77652.094	1	1	0	0	62.5063	63.6059	55.992	3.05765	41.7476	23.5015	5.1023	80.463	127.712	133.745	116.601	44.3125	106.601	79.3365	54.5192	179.558	35.190	228.246	33.272	153.229	210.272	204.993	213.300	212.055	8192	-8191	8192	8192	254	
77652.164	1	1	0	0	55.0226	53.545	46.1544	4.20157	52.5774	25.6571	9.28311	78.0894	121.423	133.524	116.736	37.7163	113.404	86.7404	54.9615	177.072	44.270	225.487	38.557	234.941	220.811	221.043	208.557	213.315	8192	-8191	8192	8192	254	
77652.211	1	1	0	0	52.0156	56.4159	56.6247	7.86829	48.4979	30.2652	11.5117	92.2858	120.394	130.962	125.423	41.7788	113.688	80.8221	55.2019	192.76	36.320	239.466	40.336	165.576	213.865	196.971	210.360	218.722	8192	-8191	8192	8192	254	
77652.258	1	1	0	0	61.6499	59.8813	59.4785	2.28589	50.2697	28.9718	9.63894	81.9182	127.149	136.788	121.99	46.4231	114.389	86.0577	54.0385	185.163	40.960	229.670	35.783	43.848	206.598	215.063	218.867	210.363	8192	-8191	8192	8192	254	
77652.305	1	1	0	0	61.511	50.4413	47.6812	4.11067	49.6273	28.9706	3.341	80.6382	123.688	141.375	115.062	41.7452	113.337	83.5385	59	186.058	42.677	236.792	36.684	62.911	212.684	230.014	248.470	210.444	8192	-8191	8192	8192	254	
77652.359	1	1	0	0	53.9076	59.5403	60.8022	3.43396	43.0034	27.3704	4.63644	73.0515	120.721	135.981	133.351	37.7067	117.875	77.8077	55.0481	177.365	26.547	227.986	34.267	13.811	209.187	222.186	242.712	210.403	8192	-8191	8192	8192	254	
77652.406	1	1	0	0	50.8325	57.0566	46.127	2.41307	51.2839	29.8193	6.51192	86.3273	129.442	137.63	122.76	44.0962	122.192	83.9519	59.6058	186.447	37.686	222.184	37.436	280.171	217.202	215.913	175.100	206.832	8192	-8191	8192	8192	254	
77652.453	1	1	0	0	58.1487	54.7327	53.8611	6.63959	50.9935	23.5497	5.91294	72.359	130.538	134.37	121.688	44.4375	120.966	85.1635	61.0529	176.519	47.790	228.871	33.132	246.935	219.845	217.729	218.706	210.745	8192	-8191	8192	8192	254	
77652.500	1	1	0	0	56.254	60.1876	55.4405	4.01124	47.4748	31.5764	14.4506	74.54	127.639	134.043	124.135	45.1683	111.875	87.2019	63.1827	186.721	37.359	227.735	39.241	0.072	210.360	219.162	218.214	215.834	8192	-8191	8192	8192	254	
77652.570	1	1	0	0	51.1823	48.0002	62.438	4.86368	42.9635	30.1964	11.9421	72.6055	119.13	136.274	125.702	48.6635	109.192	86.2596	58.625	184.279	35.185	239.146	35.769	233.935	215.258	219.799	245.354	212.225	8192	-8191	8192	8192	254	
77652.617	1	1	0	0	48.4253	60.712	51.4976	1.19256	58.08	25.6607	15.9877	88.187	129.101	137.356	129.308	46.601	127.197	84.0096	63.4135	194.216	53.170	232.397	33.868	354.585	215.231	214.817	213.112	211.955	8192	-8191	8192	8192	254	
77652.664	1	1	0	0	54.8464	45.2093	66.9379	2.70025	46.8249	29.6413	7.38965	93.3151	130.837	136.649	133.606	44.3029	120.726	82.5962	57.4615	200.082	40.577	227.456	38.992	18.054	215.708	210.031	227.732	213.758	8192	-8191	8192	8192	254	
77652.719	1	1	0	0	58.458	54.2292	50.0012	2.25415	49.9635	25.5047	11.078	86.7275	133.962	135.337	123.721	48.8894	117.538	87.7837	58.9038	190.207	33.336	215.806	32.080	138.086	225.115	220.075	226.563	210.925	8192	-8191	8192	8192	254	
77652.766	1	1	0	0	56.5261	50.979	53.5052	6.60424	49.2106	22.2059	6.137	77.0793	130.774	137.639	122.572	46.5048	118.913	81.0096	57.6587	185.894	46.160	227.624	36.572	280.280	204.109	213.342	205.407	216.657	8192	-8191	8192	8192	254	
77652.812	1	1	0	0	58.4232	59.7633	59.6946	2.14238	49.5439	27.9533	6.97842	89.0504	134.188	134.207	122.837	47.0625	118.221	87.8846	56.2067	187.01	29.968	222.493	36.628	18.290	204.163	223.604	210.467	211.103	8192	-8191	8192	8192	254	
77652.812	1	1	0	0	53.5789	65.8958	45.7423	4.40402	52.2091	25.7591	6.03309	81.8411	126.659	140.466	125.505	43.0913	113.889	86.5481	56.4279	193.341	22.315	220.562	44.776	92.812	218.594	238.302	196.531	219.576	8192	-8191	8192	8192	254	
77652.859	1	1	0	0	59.8731	47.5389	56.2223	1.17861	42.4246	27.7062	10.3373	87.3397	126.942	129.082	121.788	43.1154	114.798	82.7885	59.1923	188.043	38.364	231.212	37.343	175.366	211.866	205.272	212.862	218.789	8192	-8191	8192	8192	254	
77652.906	1	1	0	0	50.3845	59.1775	58.6462	3.36365	43.804	27.1752	7.38723	80.6019	123.827	133.053	124.899	41.3462	114.635	83.0529	58.5625	183.293	40.489	241.123	36.566	123.306	215.382	209.637	218.179	212.464	8192	-8191	8192	8192	254	
77652.953	1	1	0	0	49.5408	59.0548	58.0384	2.13183	53.395	25.0641	13.1703	89.1128	130.13	138.212	127.409	45.9471	120.625	86.7644	58.0673	184.827	39.214	221.126	37.804	89.328	207.987	213.167	219.358	220.053	8192	-8191	8192	8192	254	
77653.023	1	1	0	0	53.781	47.7499	50.5935	4.85769	52.5474	17.6713	11.197	84.9593	123.389	131.077	119.231	47.0337	113.702	84.3894	60.1394	180.534	44.811	232.513	28.756	174.589	217.380	220.682	214.195	207.900	8192	-8191	8192	8192	254	
77653.078	1	1	0	0	62.9274	53.3914	45.4451	3.24585	56.4	25.2431	7.3553	87.7273	131.351	132.269	116.226	44.8077	116.442	85.4327	58.5962	188.615	38.453	228.802	31.175	91.370	218.033	209.294	211.756	213.356	8192	-8191	8192	8192	254	
77653.125	1	1	0	0	66.1603	61.3161	50.5889	5.70154	51.0806	17.8817	8.9952	85.7748	132.668	139.635	121.149	42.3558	115.49	84.5817	60.0096	186.957	40.180	218.334	26.500	175.302	210.310	208.465	201.987	213.692	8192	-8191	8192	8192	254	
77653.172	1	1	0	0	61.1966	53.1217	60.3363	4.87332	43.6274	30.1269	11.8414	85.2423	128.688	127.885	124.712	48.9375	108.832	86.9231	58.7452	183.673	39.937	221.634	33.331	230.350	212.658	211.900	204.499	209.002	8192	-8191	8192	8192	254	
77653.219	1	1	0	0	60.0413	45.0893	53.1107	3.15059	45.5201	26.7403	8.42739	76.1774	129.784	126.413	122.361	39.4856	108.423	88.024	56.3606	180.337	42.669	227.832	34.264	278.992	219.740	221.344	255.481	220.298	8192	-8191	8192	8192	254	
77653.266	1	1	0	0	61.0566	45.1182	49.5326	2.52919	41.2167	19.9524	7.05492	86.9884	124.764	129.279	126.317	48.1779	115.812	84.7212	57.8654	188.404	34.205	220.688	37.556	120.461	212.568	208.148	272.208	214.027	8192	-8191	8192	8192	254	
77653.312	1	1	0	0	59.5509	58.7188	43.5661	6.24429	36.8478	29.6193	12.7216	88.4577	129.688	132.12	121.207	46.6971	109.471	84.6971	53.7163	187.707	43.715	225.619	39.361	228.007	215.315	224.273	232.029	210.394	8192	-8191	8192	8192	254	
77653.359	1	1	0	0	55.8459	57.9305	51.327	1.84745	45.8816	22.6638	7.43382	80.7618	126.466	135.558	127.043	45.351	114.361	90.0721	63.4952	185.635	36.801	221.062	32.018	36.515	210.983	227.644	209.921	215.623	8192	-8191	8192	8192	254	
77653.438	1	1	0	0	55.3032	63.4221	48.9775	1.9964	45.5056	25.3287	9.60269	73.2028	121.913	132.861	120.76	42.2404	113.365	85.6298	57.3077	175.486	39.399	229.164	42.140	140.798	213.355	225.383	243.463	212.907	8192	-8191	8192	8192	254	
77653.484	1	1	0	0	55.5528	52.5194	52.1088	0.972434	46.6271	32.5027	7.90479	76.8634	125.875	132.841	120.702	40.7404	117.591	88.0913	58.875	187.274	29.262	230.033	40.106	328.295	211.692	219.049	289.900	220.386	8192	-8191	8192	8192	254	
77653.531	1	1	0	0	62.2474	45.8534	53.7629	5.60464	42.7006	31.4912	9.97158	64.9705	129.13	133.654	124.481	44.4856	111.822	87.8894	53.6731	180.654	31.877	227.051	27.956	120.594	204.777	214.990	247.193	216.349	8192	-8191	8192	8192	254	
77653.578	1	1	0	0	54.7823	56.6055	43.7606	2.32606	45.1759	26.1054	7.13805	78.5405	136.736	134.418	120.25	45.1923	111.173	81.875	60.9038	181.942	42.523	224.400	33.916	107.493	204.701	209.491	222.056	212.630	8192	-8191	8192	8192	254	
77653.578	1	1	0	0	41.522	44.9249	56.8563	8.01248	54.1181	30.6387	12.1817	88.4562	122.481	130.582	123.745	41.8173	115.159	88.3798	59.7067	192.606	38.380	235.516	34.980	1.751	211.270	221.947	188.856	211.313	8192	-8191	8192	8192	254	
77653.625	1	1	0	0	57.5887	62.1086	51.0099	5.66544	51.5144	21.1441	9.70068	82.2996	126.466	131.144	119.625	42.5385	115.87	82.226	59.5769	186.76	45.713	233.844	45.577	165.205	212.978	220.843	158.491	214.345	8192	-8191	8192	8192	254	
77653.695	1	1	0	0	46.9294	53.8337	53.0485	1.47374	48.2093	24.4842	10.7192	76.4343	129.457	134.952	120.856	43.2115	113.726	84.8365	58.3558	184.976	35.383	228.503	38.847	317.413	213.639	221.308	229.936	205.144	8192	-8191	8192	8192	254	
77653.750	1	1	0	0	58.8954	58.7314	55.5383	2.16827	46.056	26.8912	3.98544	90.6559	134.812	140.457	126.409	46.1202	117.558	84.4327	58.7644	187.702	42.522	233.030	37.620	254.230	220.016	227.596	182.703	212.989	8192	-8191	8192	8192	254	
77653.797	1	1	0	0	58.5861	56.7135	50.4955	6.06333	45.1802	19.0593	4.22575	87.0269	134.433	140.486	129.135	47.125	117.639	90.8462	60.1683	183.404	35.084	232.576	28.097	156.390	223.004	226.613	160.575	212.067	8192	-8191	8192	8192	254	
77653.844	1	1	0	0	48.2733	57.4193	49.4543	4.78573	58.948	24.0347	14.0795	86.1912	129.365	134.471	127.63	45.2548	124.649	80.3894	62.2837	184.894	43.800	227.270	35.783	325.911	206.460	208.942	192.541	228.508	8192	-8191	8192	8192	254	
77653.891	1	1	0	0	57.3735	54.604	47.1793	7.50633	47.9619	29.5684	12.6172	78.902	123.731	132.538	114.942	42.3125	116.346	84.7644	63.9471	181.986	31.097	228.827	36.952	11.709	209.585	209.069	213.713	211.658	8192	-8191	8192	8192	254	
77653.938	1	1	0	0	56.627	63.7734	51.5929	1.48184	49.115	22.7682	13.984	84.4596	131.986	134.12	128.745	45.3269	111.49	83.6202	63.6827	186.038	32.194	228.137	35.614	151.712	216.666	205.563	248.674	208.420	8192	-8191	8192	8192	254	
77653.984	1	1	0	0	62.0894	46.72	55.258	3.24757	54.7466	22.2184	14.4964	81.5786	129.625	135.981	127.163	43.8125	124.197	82.8317	61.2356	187.486	33.709	230.467	47.230	175.533	214.671	223.161	201.215	208.909	8192	-8191	8192	8192	254	
77654.039	1	1	0	0	54.2921	52.9935	59.1702	3.43841	44.7967	28.4098	8.42567	83.0447	131.096	127.894	125.106	42.4038	116.683	85.9856	59.2548	188.577	36.945	228.872	38.912	203.042	209.288	214.178	216.173	212.740	8192	-8191	8192	8192	254	
77654.109	1	1	0	0	52.9621	55.9247	55.2029	2.15494	50.1206	26.7238	6.5412	75.5529	129.115	139.875	124.269	47.3173	113.365	83.0865	58.5144	183.212	40.057	230.822	34.936	2.482	211.009	216.344	224.125	217.563	8192	-8191	8192	8192	254	
77654.156	1	1	0	0	48.8129	57.0269	51.2199	3.71691	59.2368	28.6437	13.7069	85.6395	124.668	132.721	121.375	46.625	121.322	87.4375	58.9183	183.37	40.320	230.255	40.088	250.600	201.104	216.644	223.633	210.451	8192	-8191	8192	8192	254	
77654.203	1	1	0	0	52.4976	54.0216	55.4475	1.48973	50.5685	23.7131	8.65152	83.5975	131.74	134.399	123.409	41.8317	114.005	85.399	59.2115	185.889	41.716	228.033	19.723	190.743	211.509	221.448	229.327	208.736	8192	-8191	8192	8192	254	
77654.250	1	1	0	0	48.7351	58.0688	57.3769	2.11315	56.7688	33.5821	10.3335	80.5181	120.644	131.745	133.649	44.2933	114.601	88.0673	62	189.457	36.292	222.812	35.533	11.230	209.136	226.711	204.000	210.533	8192	-8191	8192	8192	254	
77654.297	1	1	0	0	55.3584	50.5642	51.0112	3.97826	46.6392	25.6807	6.94912	71.7237	123.899	132.019	121.351	41.2308	118.072	87.8702	56.9471	189	38.521	226.528	38.732	13.702	214.999	214.129	220.053	207.215	8192	-8191	8192	8192	254	
77654.344	1	1	0	0	57.6989	57.2707	58.5209	4.96387	46.7506	35.7219	5.86959	96.3954	121.082	128.529	131.356	41.9375	120.471	87.2452	61.6731	188.707	34.974	233.499	35.180	179.636	218.171	220.562	220.548	208.191	8192	-8191	8192	8192	254	
77654.344	1	1	0	0	50.4911	58.6718	60.9347	4.61598	49.3363	33.1219	9.43981	83.8206	119.389	131.067	127.572	40.3558	121.173	89.4231	62.274	184.481	25.591	232.884	25.871	205.431	213.778	217.756	205.313	214.398	8192	-8191	8192	8192	254	
77654.391	1	1	0	0	55.3446	71.1934	47.7554	2.88598	48.5649	26.8688	11.5319	86.2147	127.726	133.62	122.125	46.2596	117.356	79.1635	60.774	183.471	37.197	223.570	28.062	182.757	214.111	209.540	247.202	219.626	8192	-8191	8192	8192	254	
77654.445	1	1	0	0	51.3001	53.6638	52.0032	3.45238	48.91	27.0094	14.2452	92.7594	118	133.784	120.25	41.1202	113.875	77.0769	58.9952	190.245	38.657	226.387	37.725	240.502	210.547	224.507	207.819	210.865	8192	-8191	8192	8192	254	
77654.492	1	1	0	0	63.8199	61.1041	55.2958	4.47006	45.7361	26.863	11.8154	77.0364	125.144	138.236	122.726	41.7933	108.091	88.8221	57.6731	177.01	34.324	220.996	33.942	199.363	213.355	216.643	173.952	217.848	8192	-8191	8192	8192	254	
77654.562	1	1	0	0	59.6401	51.8485	55.287	7.77785	52.6453	25.4549	7.59813	86.8356	125.986	129.115	125.702	44.6971	116.284	81.9135	59.875	195.447	30.767	227.854	34.632	171.275	221.935	222.394	240.330	211.107	8192	-8191	8192	8192	254	
77654.609	1	1	0	0	52.6794	48.4467	61.774	7.77654	49.6966	25.1398	4.01757	82.3265	121.938	131.663	126.409	44.3894	117.082	83.3654	60.2067	181.173	42.238	230.568	34.583	37.253	217.868	207.880	232.047	214.420	8192	-8191	8192	8192	254	
77654.656	1	1	0	0	53.1335	56.8893	54.1677	5.40662	56.7119	23.6338	11.1641	79.0064	128.702	130.361	125.351	45.8846	120.75	79.8077	55.9135	178.899	32.202	235.722	32.699	190.171	207.660	221.033	224.042	209.813	8192	-8191	8192	8192	254	
77654.703	1	1	0	0	56.0395	58.1118	50.027	5.57623	47.4514	27.494	9.04753	64.8182	124.587	139.24	120.101	42.6154	114.462	87.9808	54.851	181.096	38.337	222.578	32.741	342.231	216.682	225.863	226.730	212.681	8192	-8191	8192	8192	254	
77654.758	1	1	0	0	52.4431	57.9437	56.2329	5.15486	62.9757	30.1308	9.09679	80.1838	122.409	140.125	125.538	44.5385	118.587	84.6875	59.0721	183.885	33.667	230.637	41.926	301.198	216.247	216.322	251.462	212.504	8192	-8191	8192	8192	254	
77654.805	1	1	0	0	63.2302	70.1011	45.0385	3.81522	44.182	25.6486	13.3649	92.9348	128.779	135.284	126.928	41.3846	116.942	87.2212	59.6731	188.062	41.076	221.214	33.084	286.370	215.492	228.129	208.813	211.393	8192	-8191	8192	8192	254	
77654.852	1	1	0	0	50.2522	51.9861	47.8578	4.56182	49.1098	32.7512	9.59178	88.063	127.769	135.524	121.856	43.3365	109.88	91.024	59.2115	182.841	34.502	234.200	41.898	148.299	214.839	224.991	221.872	216.318	8192	-8191	8192	8192	254	
77654.898	1	1	0	0	54.8711	56.1828	56.8327	5.03698	54.0667	26.7969	10.2875	74.0239	128.5	132.904	130.591	43.976	107.332	83.0481	55.8606	180.601	38.425	233.511	32.620	64.960	211.627	214.843	242.055	215.484	8192	-8191	8192	8192	254	
77654.969	1	1	0	0	48.7166	52.6605	59.008	6.16266	47.0121	29.457	11.2061	83.5543	120.538	125.62	128.88	50.1923	112.452	87.8077	58.4231	183.481	30.147	222.802	41.251	107.273	214.804	212.603	221.587	210.113	8192	-8191	8192	8192	254	
77655.016	1	1	0	0	55.4516	50.8921	57.5153	3.97194	48.5659	29.9845	12.7465	85.0205	127.12	126.856	120.096	41.5529	114.284	86.6442	62.6923	190.188	44.572	226.242	38.055	333.562	211.930	213.409	243.590	212.381	8192	-8191	8192	8192	254	
77655.070	1	1	0	0	57.8062	55.0929	47.7746	2.50647	46.3264	21.8142	12.5287	85.0107	127.385	132.678	124.88	46.5817	113.933	88.1587	58.1971	186.5	37.336	229.349	36.251	26.673	212.549	234.359	208.775	213.982	8192	-8191	8192	8192	254	
77655.117	1	1	0	0	58.9233	57.2194	52.1186	2.71414	58.7655	34.8517	10.8711	87.4589	133.139	131.495	123.091	46.1923	121.173	88.7548	58.2308	180.231	36.289	218.857	35.818	76.813	208.668	214.399	198.809	217.715	8192	-8191	8192	8192	254	
77655.117	1	1	0	0	57.5955	55.6704	45.543	0.792685	49.5146	27.536	11.7157	69.2065	132.486	127.755	124.601	40.1058	115.644	84.149	54.7596	186.846	39.036	225.092	28.370	312.551	213.582	219.542	210.353	211.275	8192	-8191	8192	8192	254	
77655.164	1	1	0	0	55.6838	51.4183	53.2574	7.52035	45.9848	22.6355	8.42431	75.1351	127.442	133.173	125.043	48.6202	109.644	88.1058	60.351	179.135	42.684	233.756	31.669	243.233	215.387	225.020	208.602	204.919	8192	-8191	8192	8192	254	
77655.234	1	1	8	0	62.478	57.0313	56.378	2.43362	53.4764	25.7897	0.350101	80.9045	135.428	138.851	117.264	45.5337	123.74	78.601	59.9567	183.697	45.142	223.221	27.067	257.729	216.652	207.606	251.619	214.216	8192	-8191	8192	8192	254	
77655.281	1	1	0	0	55.6415	46.8577	53.8832	5.43513	55.6484	32.6857	11.3763	76.0111	125.505	135.135	121.856	44.5529	118.769	82.5625	59.3942	182.832	27.813	224.927	38.877	250.809	211.963	215.002	227.592	204.383	8192	-8191	8192	8192	254	
77655.328	1	1	0	0	61.1049	54.2067	53.4744	1.54985	53.9096	24.8083	4.82843	85.4498	127.562	126.346	122.466	43.2692	117.091	84.1587	56.7452	191.822	39.011	224.689	42.524	155.276	216.950	221.438	228.430	211.425	8192	-8191	8192	8192	254	
77655.383	1	1	0	0	58.2186	53.8207	55.3165	4.74845	51.3054	24.7976	5.73069	69.7639	128.284	132.519	126.351	41.375	116.471	82.1298	62.3462	181.755	43.611	228.676	35.631	86.525	215.063	222.041	240.467	215.368	8192	-8191	8192	8192	254	
77655.430	1	1	0	0	61.6081	52.8688	50.5973	3.28164	46.2306	17.8697	9.16213	74.4949	126.12	124.163	125.096	42.6442	117.394	81.0577	59.1202	181.587	30.500	236.495	39.833	146.557	216.199	214.598	235.882	211.392	8192	-8191	8192	8192	254	
77655.477	1	1	0	0	56.0983	60.6134	58.1764	3.90327	51.2433	38.3079	10.3597	68.7989	129.625	126.216	123.957	49.5962	111.553	88.1635	60.2837	182.995	39.517	235.642	35.803	52.459	213.572	214.564	244.751	214.647	8192	-8191	8192	8192	254	
77655.523	1	1	0	0	56.7456	50.3636	53.5864	1.4799	44.5189	22.5487	6.35626	80.7209	126.389	129.37	123.38	42.851	115.918	85.9663	61.5288	176.726	44.282	219.535	27.567	253.018	207.618	214.801	218.027	211.207	8192	-8191	8192	8192	254	
77655.570	1	1	0	0	55.1488	57.5599	55.5898	5.6335	46.7174	25.6394	12.8381	73.4644	125.683	131.529	125.731	43.9279	112.755	83.1346	56.4952	183.736	37.365	236.462	30.737	286.545	208.832	205.754	225.595	216.446	8192	-8191	8192	8192	254	
77655.641	1	1	0	0	56.2348	58.626	49.7912	1.15255	50.0716	23.2487	6.65414	76.1077	129.649	131.144	129.288	46.2163	117.938	81.1106	63.0913	182.649	35.134	226.409	36.114	353.042	210.382	215.857	227.811	214.791	8192	-8191	8192	8192	254	
77655.688	1	1	0	0	57.7748	52.4265	62.6149	2.34148	47.6467	42.4628	10.0553	82.5389	127.562	132.288	134.808	46.8654	107.99	97.9904	60.4904	179.38	34.339	222.416	39.288	264.249	197.610	225.546	223.318	209.550	8192	-8191	8192	8192	254	
77655.742	1	1	0	0	58.256	65.315	61.3311	5.98295	54.6712	25.7828	5.9015	79.0824	131.779	141.005	121.346	46.649	120.788	92.024	58.3221	177.514	37.251	224.874	32.967	270.626	210.018	207.193	162.710	217.182	8192	-8191	8192	8192	254	
77655.789	1	1	0	0	57.1196	59.5648	54.6439	1.50815	55.9146	29.2273	2.71437	84.538	132.904	131.721	131.644	46.4231	115.245	83.1538	58.7548	185.505	39.008	226.985	47.852	130.460	207.495	215.393	279.557	200.805	8192	-8191	8192	8192	254	
77655.836	1	1	0	0	47.6923	48.3763	50.6891	3.79953	47.4576	24.5145	11.4483	78.7628	130.654	128.899	124.861	48.3654	114.894	78.399	60.375	185.514	43.414	229.961	34.022	50.530	207.742	241.268	208.201	216.505	8192	-8191	8192	8192	254	
77655.883	1	1	0	0	53.1599	47.2755	56.8785	2.94532	52.4474	25.0134	16.334	86.1665	130.197	128.149	126.558	40.7308	118.418	81.9231	62.2885	187.534	42.362	223.524	37.805	60.470	206.515	207.054	240.485	219.958	8192	-8191	8192	8192	254	
77655.883	1	1	0	0	62.2322	62.6497	53.3401	1.40255	49.2133	22.6779	12.4899	87.7969	125.678	135.284	129.452	44.3894	111.88	86.3558	60.1298	183.769	41.499	227.202	36.152	27.878	202.080	209.943	243.179	212.861	8192	-8191	8192	8192	254	
77655.930	1	1	0	0	58.4377	52.9271	52.0344	2.99862	54.4021	23.3851	9.26745	73.148	126.663	130.096	125.385	45.8413	124.433	88.524	62.3606	183.947	43.388	233.733	28.815	247.462	216.763	231.877	222.290	209.915	8192	-8191	8192	8192	254	
77655.977	1	1	0	0	55.7187	49.5051	54.3585	4.02183	47.856	26.5398	10.6964	77.5702	118.389	132.462	118.889	47.5865	112.255	81.6875	58.1202	178.966	46.987	233.307	32.249	223.538	218.193	212.667	175.150	211.980	8192	-8191	8192	8192	254	
77656.023	1	1	0	0	59.6496	57.377	40.1072	3.90116	49.4704	24.2153	3.85545	82.4988	132.889	136.505	120.495	43.774	114.226	85.8942	59.6442	176.548	45.353	225.702	31.988	116.471	216.761	217.723	233.867	214.496	8192	-8191	8192	8192	254	
77656.102	1	1	0	0	61.6435	54.3073	48.5507	7.63785	48.4593	26.935	10.4139	76.4207	128.755	135.221	123.149	43.3702	113.832	74.9615	56.2452	187.207	34.905	221.262	42.490	185.459	216.026	209.186	225.963	212.838	8192	-8191	8192	8192	254	
77656.148	1	1	0	0	49.9182	54.7961	52.355	2.93033	54.4858	32.3413	10.1961	83.3243	125.24	135.601	123.438	43.0192	117.971	83.9231	60.1923	184.981	44.485	223.177	36.544	29.876	206.368	215.210	230.852	216.059	8192	-8191	8192	8192	254	
#DATA ENDS
