BOXY.EXE: ISS Imagent Data Acquisition Program Version 0.82
Ascii Record File

#ACQ INFORMATION
1  Detector Channels 
8  External MUX Channels 
4  Auxiliary Analog Channels 
5000  Waveform (CCF) Frequency (Hz)
4  Waveforms Skipped 
26  Waveforms Averaged 
1  Cycles Averaged 
8  Acquisitions per Waveform 
1  Auxiliary Digital Channels 

#Data Update Rate
20.8333  Update Rate (Hz) 
FALSE -- Use Phase Reference
FALSE -- Use Continuous Phase Reference
FALSE -- Use Intensity Reference
FALSE -- Use Continuous Intensity Reference

#FILE INFORMATION
TRUE -- External MUX Channel results are PARSED.
FALSE -- AC DC and Phase are NOT grouped.
TRUE -- Companion Program Settings File CREATED.
FALSE -- AC data not excluded
FALSE -- DC data not excluded
FALSE -- Phase data not excluded
FALSE -- Auxillary Chn. data not excluded
Tab delimiters

#CALIBRATION STATE
FALSE -- Waveform Calibration Values NOT applied.

#WAVELENGTH DATA
Wavelength Index	Wavelength	Comp1 ExtCoef	Comp2 ExtCoef	Comp3 ExtCoef	Comp4 ExtCoef	BackGround	Weight	

1	6.600e+02	1.486e+00	3.844e+00	1.000e+00	1.000e+00	1.890e-02	1.000e+00	
2	6.900e+02	2.315e+00	1.792e+00	1.000e+00	1.000e+00	2.180e-02	1.000e+00	
3	7.500e+02	1.000e+00	1.000e+00	1.000e+00	1.000e+00	3.010e-03	1.000e+00	
4	7.750e+02	1.000e+00	1.000e+00	1.000e+00	1.000e+00	3.240e-03	1.000e+00	
5	7.850e+02	1.000e+00	1.000e+00	1.000e+00	1.000e+00	1.660e-02	1.000e+00	
6	8.000e+02	1.000e+00	1.000e+00	1.000e+00	1.000e+00	1.480e-02	1.000e+00	
7	8.250e+02	1.000e+00	1.000e+00	1.000e+00	1.000e+00	1.620e-02	1.000e+00	
8	8.300e+02	1.000e+00	1.000e+00	1.000e+00	1.000e+00	2.620e-02	1.000e+00	


#AUX CALIBRATION VALUES
Val Type	aux-1	aux-2	aux-3	aux-4	

Term	0.0000e+00	0.0000e+00	0.0000e+00	0.0000e+00	
Factor	1.0000e+00	1.0000e+00	1.0000e+00	1.0000e+00	


#WF CALIBRATION VALUES
A = Detector Channel
Val Type	A-AC1	A-AC2	A-AC3	A-AC4	A-AC5	A-AC6	A-AC7	A-AC8	A-DC1	A-DC2	A-DC3	A-DC4	A-DC5	A-DC6	A-DC7	A-DC8	A-Ph1	A-Ph2	A-Ph3	A-Ph4	A-Ph5	A-Ph6	A-Ph7	A-Ph8	

Term	0.00000e+00	0.00000e+00	0.00000e+00	0.00000e+00	0.00000e+00	0.00000e+00	0.00000e+00	0.00000e+00	0.00000e+00	0.00000e+00	0.00000e+00	0.00000e+00	0.00000e+00	0.00000e+00	0.00000e+00	0.00000e+00	-1.05892e+02	-9.99249e+01	-2.86485e+02	-2.62799e+02	-2.45797e+02	-2.48632e+02	-7.72400e+01	-7.86612e+01	
Factor	3.48934e-02	2.88771e-02	2.23541e-02	4.58344e-02	3.11822e-02	3.92311e-02	3.80806e-02	2.80088e-02	4.70955e+01	8.07534e+01	3.66973e+01	1.04434e+02	6.45565e+01	3.94082e+01	9.13796e+01	5.49806e+01	X	X	X	X	X	X	X	X	



#DISTANCE SETTINGS
A = Detector Channel
A-1	A-2	A-3	A-4	A-5	A-6	A-7	A-8	

1.5000e+00	1.5000e+00	1.5000e+00	1.5000e+00	1.5000e+00	1.5000e+00	1.5000e+00	1.5000e+00	



#ADDITIONAL SIGNAL INFORMATION
A = Detector Channel
Info. Type	A-1	A-2	A-3	A-4	A-5	A-6	A-7	A-8	

cal. block. ind.	1	1	1	1	1	1	1	1	
wavelength ind.	0	1	2	3	4	5	6	7	
weight	1.0000e+00	1.0000e+00	1.0000e+00	1.0000e+00	1.0000e+00	1.0000e+00	1.0000e+00	1.0000e+00	


#CALIBRATION BLOCK OPTICAL PROPS
Calib. Block Num.	WaveLen Index	Absorption	Scattering	

1	1	1.080e-01	9.000e+00	
1	2	1.300e-01	1.070e+01	
1	3	1.130e-01	9.400e+00	
1	4	1.210e-01	1.000e+01	
1	5	1.080e-01	9.000e+00	
1	6	1.300e-01	1.070e+01	
1	7	1.150e-01	9.600e+00	
1	8	1.330e-01	1.090e+01	

Calib. Block Num.	WaveLen Index	Absorption	Scattering	

2	1	1.120e-01	4.400e+00	
2	2	1.200e-01	5.700e+00	
2	3	1.140e-01	4.600e+00	
2	4	1.160e-01	5.100e+00	
2	5	1.120e-01	4.400e+00	
2	6	1.200e-01	5.700e+00	
2	7	1.150e-01	4.800e+00	
2	8	1.210e-01	6.000e+00	

Calib. Block Num.	WaveLen Index	Absorption	Scattering	

3	1	9.300e-02	8.700e+00	
3	2	1.010e-01	1.040e+01	
3	3	9.500e-02	9.000e+00	
3	4	9.700e-02	9.600e+00	
3	5	9.300e-02	8.700e+00	
3	6	1.010e-01	1.040e+01	
3	7	9.600e-02	9.300e+00	
3	8	1.030e-01	1.080e+01	

Calib. Block Num.	WaveLen Index	Absorption	Scattering	

4	1	1.000e-01	1.000e+01	
4	2	1.000e-01	1.000e+01	
4	3	1.000e-01	1.000e+01	
4	4	1.000e-01	1.000e+01	
4	5	1.000e-01	1.000e+01	
4	6	1.000e-01	1.000e+01	
4	7	1.000e-01	1.000e+01	
4	8	1.000e-01	1.000e+01	



#DATA BEGINS
time	group	step	mark	flag	A-AC1	A-AC2	A-AC3	A-AC4	A-AC5	A-AC6	A-AC7	A-AC8	A-DC1	A-DC2	A-DC3	A-DC4	A-DC5	A-DC6	A-DC7	A-DC8	A-Ph1	A-Ph2	A-Ph3	A-Ph4	A-Ph5	A-Ph6	A-Ph7	A-Ph8	aux-1	aux-2	aux-3	aux-4	digaux	

77333.758	1	1	0	768	3718.11	14.5255	3543.65	1629.81	496.386	4964.46	5.36314	3.90129	5539.93	73.774	5174.66	2604.79	897.587	8625.8	59.3654	57.0048	80.646	300.554	255.765	258.457	260.524	256.621	252.958	144.829	8192	-8191	8192	8192	254	
77333.805	1	1	0	0	4551.29	4857.96	4144.27	12.6003	3575.18	1665.27	496.634	4908.41	6801.73	7929.27	6318.79	69.226	5176.65	2623.66	925.505	8484.35	80.487	268.383	79.782	234.770	256.077	259.454	261.153	255.399	8192	-8191	8192	8192	254	
77333.883	1	1	0	0	4581.1	4892.95	4208.98	0.928928	3550.42	1655.56	506.109	4921.11	6814.37	7913.56	6442.79	65.0625	5166.85	2629.23	910.962	8537.9	80.752	268.961	79.922	69.754	255.867	259.164	261.615	255.366	8192	-8191	8192	8192	254	
77333.930	1	1	0	0	4591.72	4953.13	4237.3	3.73375	3650.59	1637.55	532.518	4932.98	6799.21	7927.05	6458.57	66.7933	5233.15	2606.48	923.745	8535.81	80.403	268.458	78.894	83.372	256.023	260.436	260.662	256.997	8192	-8191	8192	8192	254	
77333.977	1	1	0	0	4533.49	4895.1	4252.66	4.31334	3541.69	1654.45	487.194	4907.23	6742.64	7940.91	6476.08	69.3029	5129.42	2612.83	913.212	8552.58	80.684	269.061	78.866	124.259	256.097	260.619	263.090	256.065	8192	-8191	8192	8192	254	
77334.023	1	1	0	0	4626.01	4814.89	4277.34	14.9251	3563.24	1657	514.2	5006.01	6813.42	7880.83	6520.73	64.6971	5189.92	2638.11	910.885	8655.27	80.494	268.787	79.494	298.170	255.223	259.379	261.690	255.937	8192	-8191	8192	8192	254	
77334.070	1	1	0	0	4656.15	4959.9	4307.61	5.30008	3596.24	1666.99	519.442	5029.69	6855.91	7929.06	6560.12	75.2885	5188.89	2638.52	916.995	8650.26	80.561	269.325	79.265	264.653	255.644	259.511	263.229	255.937	8192	-8191	8192	8192	254	
77334.117	1	1	0	0	4577.89	4938.22	4291.69	6.05908	3567.58	1630.08	503.095	4945.12	6817.17	7934.15	6561.55	70.0481	5185.67	2600.8	906.981	8531.14	79.893	268.821	79.149	216.545	256.297	259.195	262.358	255.619	8192	-8191	8192	8192	254	
77334.172	1	1	0	0	4589.9	4882.15	4286.16	5.16953	3554.38	1631.17	515.937	4957.88	6802	7910.38	6516	75.6346	5181.93	2595.53	913.798	8536.14	80.025	269.358	77.981	274.152	255.636	261.121	263.447	256.747	8192	-8191	8192	8192	254	
77334.219	1	1	0	0	4661.57	4941.6	4306.9	14.2605	3586.52	1688.48	499.938	4962.7	6852.74	7935.03	6598.19	74.0721	5213.11	2615.02	906.793	8624.34	81.008	268.334	78.883	255.996	256.443	258.829	263.165	255.964	8192	-8191	8192	8192	254	
77334.289	1	1	0	0	4644.62	4817.92	4326.26	4.31817	3563.9	1655.66	501.428	4990.97	6836.78	7938.88	6583.9	73	5166.92	2637.73	906.875	8658.46	80.487	268.990	78.904	319.950	255.778	260.787	264.378	255.722	8192	-8191	8192	8192	254	
77334.336	1	1	0	0	4667.47	4886.54	4295.98	9.33089	3596.27	1604.34	529.765	4921.06	6809.53	7955.52	6537.65	76.7885	5179.12	2581.46	917.356	8525.91	80.268	268.603	79.579	286.575	255.974	259.968	261.470	255.772	8192	-8191	8192	8192	254	
77334.383	1	1	0	0	4561.62	4942.98	4265.94	15.6577	3618.41	1645.72	479.022	4863.48	6797.59	7932.05	6552.42	73.8029	5231.62	2629.02	898.101	8558.32	80.697	268.983	79.783	249.797	255.886	258.384	259.828	256.065	8192	-8191	8192	8192	254	
77334.430	1	1	0	0	4569.73	4934.45	4305.68	7.24259	3524.29	1637.41	499.547	4977.55	6745.26	7987.58	6563.44	72.0769	5162.98	2625.19	912.764	8608.05	80.469	268.607	78.915	302.788	256.007	259.369	261.266	256.517	8192	-8191	8192	8192	254	
77334.477	1	1	0	0	4635.71	4895.03	4278.91	1.67833	3551.43	1620.17	507.539	4926.45	6811.12	7942.65	6585.31	72.6779	5149.96	2588.82	909.298	8552.26	80.862	269.887	79.754	26.939	256.267	260.815	260.539	256.558	8192	-8191	8192	8192	254	
77334.531	1	1	0	0	4610.18	4931.18	4384.03	7.14447	3593.42	1612.97	487.236	4924.66	6778.36	7944.99	6629.21	71.7356	5190.64	2593.51	898.231	8569.44	80.222	269.468	79.154	289.235	255.776	260.110	262.698	256.044	8192	-8191	8192	8192	254	
77334.531	1	1	0	0	4655.65	4905.43	4228.65	10.9175	3559.13	1629.89	497.169	5006.43	6850.11	7948.79	6549.13	71.0048	5175.12	2607.07	912.264	8648.69	81.050	269.348	78.967	265.206	255.916	260.059	263.266	255.793	8192	-8191	8192	8192	254	
77334.578	1	1	0	0	4602.2	4893.55	4321.43	5.75924	3518.78	1637.97	513.342	4950.39	6801.24	7952.21	6590.2	67.0577	5125.41	2608.94	906.481	8563.94	80.375	269.080	79.811	268.693	256.224	260.418	258.819	255.986	8192	-8191	8192	8192	254	
77334.648	1	1	1	0	4558.78	4989.62	4340.64	4.96178	3503.46	1649.68	492.806	4876.2	6777.79	7979.72	6602.72	69.5962	5113.69	2619.08	912.284	8524.2	81.146	268.843	79.707	266.500	255.585	259.201	264.052	255.749	8192	-8191	8192	8192	254	
77334.695	1	1	0	0	4635.32	4918.24	4336.84	6.62534	3522.14	1669.27	497.026	4893.61	6816.5	7919.92	6604.33	75.226	5113.69	2608.88	917.567	8523.25	80.307	268.901	78.469	233.595	255.717	260.633	262.982	256.329	8192	-8191	8192	8192	254	
77334.742	1	1	0	0	4522.72	4933.01	4319.93	9.07716	3585.53	1629.41	552.148	4949.97	6765.15	7980.05	6593.57	70.1779	5129.95	2608.39	940.024	8602.61	80.589	269.326	79.534	276.161	255.943	259.587	260.092	255.867	8192	-8191	8192	8192	254	
77334.789	1	1	0	0	4555.11	4946.75	4266.27	7.43438	3538.26	1615.24	489.67	5005.41	6765.35	7926.82	6551.15	69.7644	5116.82	2583.14	910.231	8599.02	80.209	268.750	79.109	314.293	255.553	257.853	263.545	256.653	8192	-8191	8192	8192	254	
77334.844	1	1	0	0	4569.41	4877.9	4311.02	6.3997	3580.54	1624.17	538.748	4943	6753.41	7848.15	6600.68	68.6298	5138.02	2608.38	930.524	8554.68	80.630	268.416	78.867	279.309	256.126	258.656	261.390	255.226	8192	-8191	8192	8192	254	
77334.891	1	1	0	0	4622.04	4764.08	4335.86	10.424	3453.72	1671.39	494.228	4855.13	6814.95	7838.17	6598.38	68.3125	5043.37	2605.35	911.904	8487.32	80.713	269.014	78.882	299.342	255.798	258.489	262.004	256.355	8192	-8191	8192	8192	254	
77334.938	1	1	0	0	4579.91	4850.23	4325.79	4.77885	3511	1647.92	519.022	4949.52	6788.37	7869.36	6619.04	67.1779	5104.3	2622.06	928.212	8539.1	80.854	268.622	79.638	341.247	256.220	260.453	259.826	255.276	8192	-8191	8192	8192	254	
77334.984	1	1	0	0	4645.28	4886.51	4328.12	4.62759	3517.06	1615.59	512.463	5106.11	6814.5	7945.73	6602.25	71.024	5124.34	2615.01	915.135	8825.33	81.058	268.477	79.629	337.754	256.072	259.176	263.436	256.491	8192	-8191	8192	8192	254	
77335.055	1	1	0	0	4669.89	5052.44	4263.81	7.37319	3579.93	1620.74	504.252	5099.7	6826.74	8065	6541.49	72.1731	5198.19	2621.05	899.428	8789.61	80.598	268.824	79.246	265.094	255.729	259.802	262.764	256.633	8192	-8191	8192	8192	254	
77335.102	1	1	0	0	4669.38	4993.99	4356.95	7.5713	3452.08	1635.22	492.461	4999.48	6846.78	8017.65	6608.77	67.0865	5088.02	2599.06	889.976	8742.55	80.947	269.525	78.825	263.245	256.784	259.576	262.655	256.259	8192	-8191	8192	8192	254	
77335.148	1	1	0	0	4552.56	4937.97	4348.17	8.38106	3621.82	1677.94	508.217	5073.68	6791.23	7979.55	6623.11	69.4663	5192.53	2645.69	902.596	8765.08	79.827	269.196	80.332	273.605	255.494	259.128	263.481	256.180	8192	-8191	8192	8192	254	
77335.203	1	1	0	0	4587.86	4876.08	4392.37	13.5725	3514.27	1659.81	513.251	5120.29	6783.27	7895.66	6633.18	79.7404	5108.75	2600.27	919.188	8750.24	80.907	268.261	79.230	266.497	255.867	259.366	264.380	255.692	8192	-8191	8192	8192	254	
77335.250	1	1	0	0	4595.48	4874	4342.84	2.66744	3481.3	1654.53	488.388	4847.69	6804.46	7920.6	6639.88	73.7212	5100.01	2632.51	915.351	8510.87	80.765	268.707	79.290	21.550	255.598	260.995	263.794	256.219	8192	-8191	8192	8192	254	
77335.297	1	1	0	0	4643.94	5046.49	4397.67	5.36037	3469.85	1623.43	491.727	4881.59	6811.89	8003.1	6671.46	82.9856	5068.74	2615.67	892.582	8465.89	81.429	268.067	79.071	230.905	256.218	259.998	266.547	256.802	8192	-8191	8192	8192	254	
77335.297	1	1	0	0	4541.63	4908.09	4310.88	10.7729	3539.65	1607.58	522.048	4969.23	6744.71	8033.8	6632.47	85.7596	5164.59	2613.61	961.889	8604.9	80.743	269.136	79.318	258.937	255.819	259.772	260.860	256.536	8192	-8191	8192	8192	254	
77335.344	1	1	0	0	4688.23	4851.9	4352.25	12.2299	3572.03	1642.93	527.211	5081.72	6873.02	7926.98	6695.56	140.606	5218.35	2663.55	994.51	8845.41	80.456	268.767	79.473	272.648	255.580	260.591	261.453	255.089	8192	-8191	8192	8192	254	
77335.414	1	1	0	0	4656.27	4942.2	4306.96	5.96813	3514.52	1579.73	503.621	4950.49	6907.55	7946.26	6606.89	107.389	5161.48	2622.52	946.894	8650.76	80.246	267.772	79.795	283.490	255.680	259.679	263.114	256.168	8192	-8191	8192	8192	254	
77335.461	1	1	0	0	4561.35	4813.53	4305.58	6.94325	3493.8	1655.46	497.163	4909.4	6819.14	7840.37	6633.36	105.082	5121.38	2638.79	954.404	8587.81	80.529	268.972	79.050	283.279	255.478	258.974	262.873	256.649	8192	-8191	8192	8192	254	
77335.516	1	1	0	0	4549.17	4814.35	4317.22	10.9261	3562.59	1608.16	492.684	4992.15	6796.12	7858.8	6607.22	96.4952	5156.07	2632.61	930.24	8714.68	80.912	268.790	79.509	260.655	255.582	259.091	262.639	256.491	8192	-8191	8192	8192	254	
77335.562	1	1	0	0	4595.51	4918.21	4275.26	14.7964	3509.7	1616.82	509.412	4919.1	6807.09	7930.25	6574.19	90.1442	5106.17	2623.01	924.976	8582.35	80.721	269.167	79.899	302.580	255.462	259.511	262.051	256.358	8192	-8191	8192	8192	254	
77335.609	1	1	0	0	4697.67	4887.67	4326.52	14.9813	3511.97	1652.79	481.392	4915.8	6864.91	7857.25	6626.86	81.3317	5115.13	2626.74	903.038	8572.49	80.507	268.591	79.219	247.347	255.887	258.628	260.323	256.410	8192	-8191	8192	8192	254	
77335.656	1	1	0	0	4599.04	4929.26	4352.06	13.8185	3491.2	1615.25	485.465	5089.27	6821.84	7836	6668.61	79.4087	5088.18	2637.64	949.346	8815.36	80.215	268.686	79.287	211.454	255.484	258.840	263.229	256.219	8192	-8191	8192	8192	254	
77335.703	1	1	0	0	4557.53	4889.85	4304.44	5.84362	3508.33	1659.86	514.464	5072.32	6790.87	7911.04	6587.17	78.7788	5149.56	2621.82	927.635	8774.6	80.532	269.047	79.408	247.910	256.531	259.508	263.967	256.112	8192	-8191	8192	8192	254	
77335.750	1	1	0	0	4631.29	4911.44	4343.93	3.62728	3514.17	1625.67	500.421	4945.78	6820.93	7916.05	6655.22	59.5721	5113.2	2582.32	913.322	8536.22	81.018	268.543	78.812	310.365	256.102	259.263	263.550	256.716	8192	-8191	8192	8192	254	
77335.805	1	1	0	0	4568.44	4879.21	4292.27	2.49462	3490	1598.47	503.938	5015.77	6761.96	7906.32	6631.31	64.4087	5075.39	2594.2	906.611	8634.55	81.189	268.525	79.062	231.277	256.212	259.427	261.300	255.899	8192	-8191	8192	8192	254	
77335.852	1	1	0	0	4631.38	4934.1	4303.29	5.41981	3514.74	1654.58	534.874	4972.07	6836.59	7921.94	6608.65	64.8462	5122.43	2621.41	934.683	8639.41	80.489	269.130	79.608	291.775	255.162	259.238	264.537	256.565	8192	-8191	8192	8192	254	
77335.922	1	1	0	0	4583.51	4839.39	4325.83	6.11903	3528.63	1648.33	498.032	4955.83	6805.3	7832.92	6602.09	67.649	5092.04	2633.13	888.885	8620.93	80.702	269.713	79.220	247.794	256.000	258.553	261.632	256.547	8192	-8191	8192	8192	254	
77335.969	1	1	0	0	4550.33	4866.15	4314.18	6.54311	3523.29	1633.85	491.382	5074.76	6772.04	7827.92	6590.18	64.6298	5093.19	2613.58	887.918	8787.41	81.143	269.079	80.164	348.244	256.302	260.658	261.397	256.505	8192	-8191	8192	8192	254	
77336.016	1	1	0	0	4593.22	4861.12	4395.28	3.82925	3499.39	1661.52	526.84	4945.04	6815.7	7825.55	6667.88	62.4135	5055.5	2607.45	896.538	8640.89	80.494	269.157	78.931	196.963	255.620	260.457	260.789	255.816	8192	-8191	8192	8192	254	
77336.062	1	1	0	0	4544.26	4861.6	4345.15	6.35622	3427.19	1671.83	512.766	4973.16	6792.2	7830.52	6625.8	65.9856	5044.16	2657.63	894.769	8546.17	81.336	268.842	78.775	295.351	256.928	259.191	261.759	256.676	8192	-8191	8192	8192	254	
77336.062	1	1	0	0	4569	4829.37	4273.37	8.3385	3524.05	1683.79	520.078	4963.06	6791.37	7796.39	6598.06	66.3173	5086.3	2626.55	915.346	8592.03	81.143	268.994	79.320	217.651	255.719	259.716	262.458	256.271	8192	-8191	8192	8192	254	
77336.109	1	1	0	0	4584.25	4835.94	4283.32	12.0091	3509.84	1644.85	484.994	4868.93	6819.52	7794.95	6592.84	62.226	5096.32	2616.42	888.572	8564.07	79.458	268.870	79.423	230.944	255.874	259.807	264.319	256.587	8192	-8191	8192	8192	254	
77336.164	1	1	0	0	4632.8	4852.14	4357.4	10.4197	3508.84	1639.58	501.251	4916.05	6832.59	7794.99	6618.17	63.0385	5106.29	2596.88	898.889	8491.55	80.853	269.656	78.964	305.304	255.109	259.782	263.317	256.221	8192	-8191	8192	8192	254	
77336.211	1	1	0	0	4554.13	4837.42	4375.42	11.8689	3486.4	1631.93	476.886	4890.84	6777.17	7800.03	6610.38	65.3798	5067.01	2618.49	882.163	8507.57	80.040	268.745	79.193	255.162	256.609	260.548	262.291	256.533	8192	-8191	8192	8192	254	
77336.281	1	1	0	0	4555.35	4764.26	4297.07	9.32397	3452.73	1665.91	519.785	4826.2	6791.74	7768.71	6619.26	57.625	5109.63	2611.35	907.293	8446.43	80.748	269.319	79.395	241.344	255.613	259.158	261.020	256.356	8192	-8191	8192	8192	254	
77336.328	1	1	0	0	4621.39	4895.07	4340.57	6.46327	3530.92	1637.26	482.059	4893.42	6844.86	7842.67	6604.67	59.2019	5140.54	2603	869.678	8508.54	80.848	269.013	79.512	245.615	255.802	258.759	263.388	255.563	8192	-8191	8192	8192	254	
77336.375	1	1	0	0	4630.23	4821.34	4322.06	5.99768	3517.54	1652.61	522.632	4943.55	6840.52	7807.09	6589.64	61.6394	5074.62	2598.84	912.087	8556.39	80.863	269.301	79.141	258.859	255.466	258.771	263.227	256.288	8192	-8191	8192	8192	254	
77336.422	1	1	0	0	4642.27	4889.63	4365.7	9.18721	3529.61	1640.75	528.846	4958.65	6812.2	7857.93	6586.74	59.5288	5087.2	2632.13	903.332	8590.94	80.705	268.627	79.046	253.375	255.952	259.064	263.488	255.173	8192	-8191	8192	8192	254	
77336.469	1	1	0	0	4643.57	4847.95	4370.75	4.36337	3542.62	1609.63	490.689	4882.5	6828.01	7753.12	6627.34	59.8317	5104.37	2600.58	888.409	8533.68	80.820	268.687	79.262	269.446	256.207	260.008	263.428	255.880	8192	-8191	8192	8192	254	
77336.523	1	1	0	0	4602.89	4868.6	4292.97	6.79251	3561.49	1626.89	511.565	4927.63	6813.5	7841.71	6564.81	59.2308	5130.26	2603.32	902.971	8514.64	80.167	268.034	78.910	277.337	256.185	260.169	259.397	255.634	8192	-8191	8192	8192	254	
77336.594	1	1	0	0	4573.02	4916.63	4347.78	7.07699	3562.51	1663.15	510.399	4909.65	6747.45	7903.68	6624.81	54.4904	5118.13	2600.1	901.635	8538.94	81.104	269.045	78.510	239.004	256.463	259.237	262.459	256.747	8192	-8191	8192	8192	254	
77336.641	1	1	0	0	4696.66	4844.61	4359.68	3.76091	3488.4	1626.64	496.599	4937.99	6839.76	7833.33	6650.76	63.125	5107.24	2610.75	892.452	8547.09	80.280	269.204	78.714	261.072	256.359	258.111	261.752	255.619	8192	-8191	8192	8192	254	
77336.688	1	1	0	0	4612.15	4949.03	4245.4	6.49698	3553.86	1651.75	514.136	4896.39	6831.07	7870.97	6569.43	61.2212	5119.15	2611.77	928.389	8515.76	80.549	267.879	78.197	302.507	255.833	260.363	263.258	255.941	8192	-8191	8192	8192	254	
77336.734	1	1	0	0	4635.71	4802.26	4360.5	6.70294	3582.62	1664.89	492.366	4946.4	6816.31	7734.35	6583.88	57.0913	5139.77	2615.58	894.269	8601.27	80.504	269.232	78.864	275.912	255.730	258.713	259.702	255.856	8192	-8191	8192	8192	254	
77336.781	1	1	0	0	4556.44	4871.46	4317.76	11.6404	3570.28	1662.3	500.802	4995.43	6759.68	7852.61	6577.04	59.2644	5173.16	2616.47	911.365	8551.11	81.342	268.844	79.327	317.169	255.093	259.342	262.075	256.170	8192	-8191	8192	8192	254	
77336.828	1	1	0	0	4622.35	4851.06	4298.88	2.95705	3607.07	1594.21	511.533	4873.43	6770.45	7801.31	6583.43	59.7163	5161.82	2597.48	895.505	8496.97	80.535	268.955	79.840	243.202	255.857	259.585	263.628	255.856	8192	-8191	8192	8192	254	
77336.828	1	1	0	0	4611.13	4926.88	4340.92	5.47652	3567.37	1657.31	508.378	4952.2	6796.05	7831.65	6617.24	61.601	5137.74	2613.01	905.163	8531.23	79.276	268.413	79.199	290.272	256.252	260.393	262.462	256.235	8192	-8191	8192	8192	254	
77336.883	1	1	0	0	4662.1	4840.15	4330.95	9.67214	3515.81	1665.76	518.597	4896.57	6823.07	7779.12	6568.52	63.0481	5107.31	2632.81	906.596	8530.78	80.522	269.390	79.638	279.695	255.504	259.421	262.267	256.529	8192	-8191	8192	8192	254	
77336.953	1	1	0	0	4614.84	4850.73	4287.37	8.59983	3586.88	1606.63	504.957	4881.88	6817.68	7820.26	6563.14	59.8942	5154.44	2590.67	906.303	8462.73	80.346	269.023	78.843	262.294	255.843	259.366	262.675	256.591	8192	-8191	8192	8192	254	
77337.000	1	1	0	0	4611.21	4870.85	4335.27	4.8742	3515.5	1672.45	486.82	4928.25	6784.74	7841.55	6608.92	58.6875	5118.04	2608.86	877.409	8514.19	80.474	269.682	79.397	131.119	255.727	259.227	264.487	256.083	8192	-8191	8192	8192	254	
77337.023	1	1	0	0	4716.86	4833.21	4355.94	5.71627	3508.9	1609.26	493.839	4871.27	6842.78	7791.38	6627.49	61.7067	5075.56	2592.89	894.418	8503.72	80.702	267.565	78.579	251.372	255.772	259.163	262.042	255.684	8192	-8191	8192	8192	254	
77337.070	1	1	0	0	4704.36	4829.12	4320.95	10.4733	3548.1	1651.97	511.874	4963.84	6862.52	7808.61	6598.42	60.1875	5140.19	2608.75	907.361	8550.81	80.255	269.641	78.269	257.296	256.229	260.390	261.945	255.767	8192	-8191	8192	8192	254	
77337.141	1	1	0	0	4635.28	4868.05	4414.87	9.28048	3478.86	1642.68	533.402	4928.9	6822.39	7838.98	6655.01	60.5433	5065.29	2612.92	910.774	8522.69	80.020	268.490	78.908	307.344	255.419	259.075	263.078	256.631	8192	-8191	8192	8192	254	
77337.195	1	1	0	0	4657.41	4760.46	4378.95	14.0097	3539.9	1637.95	506.365	4892.33	6837.5	7757.1	6637.65	64.3798	5120.23	2591.02	903.654	8461.45	80.570	269.082	80.222	272.218	256.784	258.978	263.337	257.141	8192	-8191	8192	8192	254	
77337.242	1	1	0	0	4638.66	4847.93	4312.8	10.6182	3465.91	1637.5	493.028	4993.4	6821.24	7859	6601.69	56.8221	5073.17	2588.1	887.822	8534.58	80.957	268.595	79.306	230.282	257.038	259.331	263.083	256.670	8192	-8191	8192	8192	254	
77337.289	1	1	0	0	4635.08	4844.47	4334.64	7.21685	3547.94	1631.53	518.457	4964.14	6810.24	7801.14	6588.89	56.6106	5129.57	2581.9	909.659	8503.17	80.812	269.207	79.234	234.974	254.924	259.350	263.042	256.233	8192	-8191	8192	8192	254	
77337.359	1	1	0	0	4607.34	4740.79	4306.33	4.97857	3535.13	1633.88	514.039	4815.37	6788.73	7785.58	6600.34	55.6635	5080.21	2593.81	899.841	8435.45	80.489	268.442	78.780	228.471	255.603	259.761	261.222	256.117	8192	-8191	8192	8192	254	
77337.406	1	1	0	0	4627.96	4933.13	4311.35	4.08262	3530.44	1676.83	494.553	4973.74	6812.21	7883.21	6583.06	63.3558	5093.58	2643.64	890.981	8515.15	80.800	268.585	79.264	319.578	256.571	258.997	264.327	256.473	8192	-8191	8192	8192	254	
77337.453	1	1	2	0	4662.46	4808.12	4323.68	8.13238	3529.8	1634.29	519.899	4920.04	6816.22	7764.7	6604.38	57.3221	5086.17	2589.05	907.716	8536.27	80.623	269.365	79.632	295.049	255.328	259.111	261.410	256.220	8192	-8191	8192	8192	254	
77337.508	1	1	0	0	4634.85	4840.56	4339.7	9.08992	3544.56	1682.35	496.983	4885.48	6851.17	7788.23	6578.01	58.3413	5090.57	2627.38	900.428	8482.02	80.596	268.193	79.272	223.063	256.318	260.391	262.086	255.704	8192	-8191	8192	8192	254	
77337.555	1	1	0	0	4686.64	4777.75	4362.21	8.57746	3550.67	1618.14	490.166	4949.48	6837.54	7750.7	6602.73	53.851	5122.61	2597.4	876.413	8497.28	80.616	268.796	78.983	266.205	255.659	258.369	263.497	256.844	8192	-8191	8192	8192	254	
77337.602	1	1	0	0	4616.31	4855.93	4321.01	7.38214	3556.05	1667.35	471.828	4989.96	6786.46	7820.68	6623.44	55.5192	5110.45	2601.36	875.043	8508.37	80.386	269.350	80.024	282.578	255.595	259.042	261.023	255.849	8192	-8191	8192	8192	254	
77337.602	1	1	0	0	4578.33	4802.11	4391.67	9.26769	3501.26	1588.76	508.062	4974.05	6781.44	7782.57	6604.34	48.3221	5106.42	2568.87	897.635	8513.5	80.696	268.795	79.114	243.962	255.357	258.200	261.639	256.123	8192	-8191	8192	8192	254	
77337.648	1	1	0	0	4583.69	4782.17	4382.59	10.5506	3570.34	1612.55	492.86	4918.04	6792.78	7786.5	6575.74	51.4183	5090.16	2584.99	881.625	8515.76	80.713	268.184	79.921	309.361	255.160	259.830	260.107	256.211	8192	-8191	8192	8192	254	
77337.695	1	1	0	0	4604.01	4834.39	4299.22	5.13373	3482.22	1602.33	493.921	4847.5	6793.23	7820.88	6560.95	53.351	5077.8	2587.38	901.587	8503.38	80.838	268.342	79.371	264.314	254.945	258.192	263.760	255.780	8192	-8191	8192	8192	254	
77337.742	1	1	0	0	4620.15	4854.74	4327.68	4.56642	3491.37	1604.29	501.082	4883.63	6866.09	7821.08	6603.42	71.6923	5083.24	2585.87	921.784	8485	80.854	268.357	79.144	225.286	255.737	260.912	261.643	257.174	8192	-8191	8192	8192	254	
77337.812	1	1	0	0	4670.05	4902.9	4368.38	2.05037	3583.58	1636.32	514.525	4821.23	6884.2	7878.82	6627.91	83.9567	5181.72	2617.93	938.567	8463.04	80.840	269.318	78.668	29.176	256.028	259.432	264.420	255.952	8192	-8191	8192	8192	254	
77337.867	1	1	0	0	4615.39	4807.51	4350.83	7.90088	3529.75	1678.43	515.794	4915.97	6816.02	7846.11	6631.64	96.8606	5141.73	2645.83	946.567	8510.73	80.566	269.154	79.514	282.008	255.731	258.704	260.647	256.266	8192	-8191	8192	8192	254	
77337.914	1	1	0	0	4647.96	4853.03	4262.43	6.805	3487.03	1654.68	510.101	4918.97	6844.62	7845.48	6604.96	96.6827	5106.28	2636.36	948.697	8492.89	81.061	268.841	79.488	313.542	255.901	259.413	263.520	256.036	8192	-8191	8192	8192	254	
77337.961	1	1	0	0	4624.83	4781.24	4273.76	9.81555	3557.46	1634.75	519.43	4902.51	6866.93	7827.33	6610.17	80.0721	5157.77	2636.32	940.51	8535.6	80.929	268.845	79.858	229.167	255.353	260.238	257.434	256.544	8192	-8191	8192	8192	254	
77338.008	1	1	0	0	4651.9	4848	4303.58	8.59103	3588.55	1663.98	498.067	4962.51	6816.74	7827.55	6625.52	85.4712	5182.01	2649.85	920.611	8531.72	80.620	268.678	79.312	298.990	255.639	259.953	260.550	255.685	8192	-8191	8192	8192	254	
77338.055	1	1	0	0	4648.12	4894.25	4263.01	4.58306	3522.87	1630.18	484.004	4845.5	6854.41	7874.67	6576.56	75.4231	5108.26	2610.09	909.298	8505.19	81.080	269.028	79.697	258.760	255.646	259.448	261.798	255.567	8192	-8191	8192	8192	254	
77338.125	1	1	0	0	4615.8	4872.39	4342.98	7.35269	3472.38	1626.73	506.911	4951.1	6791.73	7895.06	6633.73	73.8077	5119.61	2597.6	927.904	8562.75	80.665	268.949	78.855	276.244	255.886	258.881	262.120	256.098	8192	-8191	8192	8192	254	
77338.180	1	1	0	0	4612.19	4909.55	4271	4.32815	3546.29	1679.53	498.383	4852.07	6835.27	7831.92	6585.46	78.1298	5137.66	2659.69	913.678	8464.04	80.741	268.744	78.500	267.084	255.685	258.437	258.742	254.975	8192	-8191	8192	8192	254	
77338.227	1	1	0	0	4643.43	4828.61	4338.04	7.5061	3510.34	1626.23	512.481	4936.36	6824.02	7868.97	6655.4	77.1587	5127.28	2624.09	926.611	8488.38	80.374	269.486	78.927	289.300	256.130	260.346	262.176	256.160	8192	-8191	8192	8192	254	
77338.273	1	1	0	0	4636.64	4844.32	4291.25	8.78179	3534.44	1626.69	532.33	4912.48	6865.21	7848.35	6613.72	89.6442	5133.9	2626.35	935.062	8531.19	80.954	269.657	78.990	314.992	255.013	260.172	262.433	256.272	8192	-8191	8192	8192	254	
77338.320	1	1	0	0	4612.57	4851.24	4357.28	10.5587	3502.19	1640.95	503.326	4871.75	6862.03	7877.68	6657.66	91.4808	5134.02	2647.94	927.663	8535.79	81.132	267.724	79.739	260.539	255.819	260.210	261.619	255.599	8192	-8191	8192	8192	254	
77338.367	1	1	0	0	4661.79	4836.9	4323.31	9.00403	3552.82	1659.21	503.181	4914.52	6851.74	7847.11	6625.85	98.9856	5165.34	2664.36	939.683	8513.26	81.024	268.630	79.680	252.911	255.265	258.420	262.029	255.917	8192	-8191	8192	8192	254	
77338.367	1	1	0	0	4623.93	4784.92	4342.11	2.55433	3535.29	1646.62	487.896	4951.02	6888.19	7884.1	6646.53	118.433	5148.03	2675.3	952.317	8600.75	81.334	268.807	80.128	313.654	255.691	259.213	262.630	255.690	8192	-8191	8192	8192	254	
77338.414	1	1	0	0	4669.15	4947.09	4337.92	5.90845	3585.66	1603.33	495.876	4845.23	6941.51	7963.63	6671.07	149.899	5214.83	2667.34	982.716	8540.71	80.534	268.501	79.066	194.990	255.524	258.564	262.478	256.126	8192	-8191	8192	8192	254	
77338.484	1	1	0	0	4687	4800.99	4380.63	6.86226	3543.76	1638.61	532.455	4879.37	6938.42	7922.96	6700.68	147.75	5219.48	2690.35	998.202	8567.87	80.509	269.277	78.971	241.119	256.225	259.280	261.312	256.534	8192	-8191	8192	8192	254	
77338.539	1	1	0	0	4626.5	4826.35	4361.74	8.61417	3516.96	1595.84	530.404	4851.93	6917.62	7920.15	6691.25	167.75	5205.71	2690.96	1039.76	8658.1	80.645	268.727	78.874	280.677	255.925	259.975	262.338	256.337	8192	-8191	8192	8192	254	
77338.586	1	1	0	0	4666.66	4897.47	4360.61	4.30128	3498.48	1664.44	495.044	4943.2	6968.86	7990.68	6750.45	209.5	5236.25	2782.51	1059.62	8623.72	80.085	268.730	79.846	217.182	256.080	258.609	262.524	256.206	8192	-8191	8192	8192	254	
77338.633	1	1	0	0	4641.48	4861.17	4347.1	7.77669	3511.85	1639.87	510.617	4899.94	6936.57	8005.57	6781.96	228.51	5258.99	2821.58	1085.68	8739.04	80.194	268.312	79.513	286.991	255.838	259.382	262.291	255.789	8192	-8191	8192	8192	254	
77338.680	1	1	0	0	4690.49	4818.48	4391.17	12.5837	3449.55	1628.6	514.11	4847.96	7065.63	7990.08	6866.27	267.904	5249.07	2783.45	1110.19	8555.61	80.818	268.323	79.587	238.468	255.163	259.852	261.769	256.035	8192	-8191	8192	8192	254	
77338.727	1	1	0	0	4518.02	4823.78	4388.63	4.46317	3527.43	1616.37	519.187	4832.12	6931.14	7985.47	6798.51	249.587	5297.24	2802.91	1094.98	8557.3	80.637	268.325	79.018	208.804	255.944	260.159	263.954	255.315	8192	-8191	8192	8192	254	
77338.773	1	1	0	0	4531.34	4789.19	4271.53	3.34916	3480.37	1631.34	542.729	5020.61	6977.99	7992.25	6756.95	253.966	5206.17	2796.73	1111.25	8865.72	80.882	268.946	80.250	334.629	256.046	258.236	261.384	254.855	8192	-8191	8192	8192	254	
77338.820	1	1	0	0	4749.75	5028.33	4541.6	5.54724	3706.16	1702.26	505.679	4460.1	7169.86	8329.72	7115.05	266.798	5533.53	2882.07	1079.69	7955.03	79.936	269.064	78.964	249.193	255.551	258.233	260.052	255.705	8192	-8191	8192	8192	254	
77338.875	1	1	0	0	3754.26	3328.94	2546.42	3.93207	1503.96	644.365	203.331	1777.04	5665.47	5519	4036.65	181.077	2298.12	1169.89	490.76	3256.59	79.652	269.922	79.011	276.732	254.812	260.205	262.968	254.662	8192	-8191	8192	8192	254	
77338.922	1	1	0	0	1406	1324.33	1342.42	0.525274	1162.38	576.498	162.678	1756.91	2170.54	2249.26	2185.31	161.99	1812.39	1033.16	443.75	3169.67	79.475	268.087	77.933	329.062	254.634	259.678	263.538	254.472	8192	-8191	8192	8192	254	
77338.992	1	1	0	0	1324.57	1286.18	1362.07	2.51834	1151.08	544.761	180.923	1733.56	2079.93	2201.01	2172.66	166.413	1816	1023.79	451.841	3150.12	81.693	269.169	78.499	285.716	255.055	259.217	257.241	256.477	8192	-8191	8192	8192	254	
77339.039	1	1	0	0	1345.74	1246.08	1288.99	3.60688	1138.89	475.17	130.828	841.915	2112.82	2181.12	2141.35	153.562	1780.5	908.192	357.409	1580.06	80.412	267.173	80.034	202.715	255.737	257.542	254.726	256.775	8192	-8191	8192	8192	254	
77339.086	1	1	0	0	328.872	183.06	118.376	3.7186	19.2891	13.2866	11.7718	8.60479	630.591	399.49	303.524	121.76	168.558	140.716	127.197	142.654	80.594	264.239	77.468	111.518	258.953	284.633	121.474	279.245	8192	-8191	8192	8192	254	
77339.141	1	1	0	0	2.67083	16.3678	7.18541	7.13698	20.8976	10.8642	30.3178	76.183	127.413	137.216	150.49	290.745	957.058	2922.27	3351.42	2592.46	95.670	23.001	273.439	166.423	70.334	26.793	277.953	260.018	8192	-8191	8192	8192	254	
77339.133	1	1	0	0	43.409	40.6886	36.5194	21.7248	14.1212	54.3688	42.8876	41.6332	2412.78	2453.62	2535.23	2700.23	2868.14	3189.99	3279.43	3530.83	248.467	44.553	351.575	38.975	318.296	149.249	166.969	136.575	8192	-8191	8192	8192	254	
77339.188	1	1	0	0	23.9619	41.157	40.2442	41.005	26.319	53.5675	20.2124	79.4304	3697.8	3810.32	3955.67	4156.42	4399.44	4597.32	4793.66	5055.76	249.562	51.335	47.382	125.108	199.640	39.492	205.596	212.656	8192	-8191	8192	8192	254	
77339.234	1	1	0	0	33.0343	55.4332	57.3413	13.0506	40.1147	21.0459	8.04088	94.5554	5455.7	5810	6249.97	6823.45	7404.76	8684.97	8864.05	8147.73	244.035	160.369	80.188	88.364	192.418	106.715	139.938	314.117	8192	-8191	8192	8192	254	
77339.281	1	1	0	0	55.0475	37.7648	102.383	52.788	61.1515	29.1504	53.5713	25.4232	7835.17	7892.48	7871.43	7783.09	7764.82	7683.99	7746.78	7816.79	157.650	280.363	314.377	189.802	126.353	152.077	150.793	96.915	8192	-8191	8192	8192	254	
77339.352	1	1	0	0	36.7912	40.9768	95.9051	66.3766	54.9797	57.6083	55.8382	18.2391	7882.5	7929.39	7917.9	7981.73	8062.46	8139.49	8186.75	8471.8	185.600	49.154	92.150	283.933	141.086	147.255	248.861	128.237	8192	-8191	8192	8192	254	
77339.398	1	1	0	0	64.6463	47.5454	110.133	98.2906	62.5543	32.5233	56.2849	10.4031	8573.43	8445.45	8579.26	8997.52	9439.08	8571.73	7451.95	7162	337.396	311.723	89.564	46.076	94.913	247.101	14.422	139.208	8192	-8191	8192	8192	254	
77339.445	1	1	0	0	57.5863	107.136	56.2134	14.4691	61.0037	108.435	64.2182	8.55455	7114.47	7395.43	7575.54	7587.85	7345.12	7186.1	7217.17	7237.81	322.548	329.981	271.404	24.131	316.810	64.067	152.549	305.984	8192	-8191	8192	8192	254	
77339.500	1	1	0	0	93.0743	20.2577	60.3004	84.7858	19.0048	49.9452	91.8316	60.2209	7537.95	8262.05	7873.85	7428.93	7772.59	6846.78	6993.51	8469.37	59.533	109.782	205.599	322.163	54.296	217.309	123.250	43.468	8192	-8191	8192	8192	254	
77339.547	1	1	0	0	42.6865	41.1231	32.9397	80.2351	17.8519	100.8	6.60991	75.1621	8409.45	7377.25	5871.53	5085.05	4364.8	5675.42	8091.37	5050.11	321.632	290.094	8.494	282.762	345.854	93.865	222.825	331.031	8192	-8191	8192	8192	254	
77339.594	1	1	0	0	20.418	32.8772	5.09275	25.19	6.69611	4.74655	2.6834	10.8579	3265.25	1172.68	811.74	885.337	964.404	990.736	975.966	1021.86	324.441	259.439	252.780	54.470	329.913	68.286	296.907	21.863	8192	-8191	8192	8192	254	
77339.641	1	1	0	0	20.7475	4.54498	12.2041	26.1837	15.0014	36.8099	32.8588	19.1323	1043.55	1085.24	1079.29	1105.1	1141.62	1137.19	1158.53	1156.92	88.624	46.589	272.861	280.441	253.313	14.288	0.867	114.784	8192	-8191	8192	8192	254	
77339.688	1	1	0	0	23.9711	32.8195	2.59528	5.21653	10.9013	28.9098	18.8195	37.003	1171.9	1195.5	1209.88	1214.55	1202.6	1195.97	1199.3	1423.57	301.204	22.003	339.031	64.743	20.991	273.276	292.163	72.560	8192	-8191	8192	8192	254	
77339.758	1	1	0	0	13.3677	29.3463	49.2561	52.1348	22.6867	29.2165	42.6745	25.6162	4147.92	4541.28	4465.06	4266.99	4114.34	3843.33	3831.01	3406.68	111.012	310.017	130.664	257.911	71.398	309.594	359.946	304.234	8192	-8191	8192	8192	254	
77339.805	1	1	0	0	6.55169	15.4939	1.59465	33.8888	24.257	6.63798	18.5259	5.72896	1197.47	693.615	659.779	643.995	628.99	651.37	636.255	618.51	274.901	138.735	152.655	31.465	313.576	115.735	222.339	5.801	8192	-8191	8192	8192	254	
77339.859	1	1	0	0	6.28598	12.8046	12.095	14.1267	24.7783	19.7215	13.022	11.0218	622.019	626.856	618.803	623.048	605.918	628.947	625.88	605.51	196.828	244.020	128.097	47.006	44.917	223.777	186.666	256.620	8192	-8191	8192	8192	254	
77339.906	1	1	0	0	5.72002	8.57593	7.29277	15.0923	4.66193	19.347	13.5212	1.99369	631.966	635.822	635.596	658.106	669.168	671.486	654.197	678.034	100.565	308.095	210.611	293.867	267.810	309.814	335.983	357.045	8192	-8191	8192	8192	254	
77339.906	1	1	0	0	23.811	14.0434	32.0328	37.9771	35.164	14.2621	57.2724	14.1344	697.572	953.034	2034.27	3473.36	3427.96	3472.54	3727.54	3657.7	29.609	155.823	103.444	351.878	3.143	272.457	124.356	118.736	8192	-8191	8192	8192	254	
77339.953	1	1	0	0	20.1558	51.3022	24.7609	16.2936	31.1335	18.3103	7.73403	55.7683	3725.45	3731.12	3748.46	3774.83	3809.4	3826.18	3860.44	4158.2	93.800	198.975	232.531	240.854	87.698	19.940	4.768	152.317	8192	-8191	8192	8192	254	
77340.023	1	1	0	0	37.3609	31.3016	49.1822	28.967	18.3921	35.8698	33.8532	50.517	4352.89	4352.06	4281.64	4183.41	4171.72	4166.68	4164.55	4158.98	62.023	320.575	326.209	172.357	207.109	51.966	152.813	339.470	8192	-8191	8192	8192	254	
77340.070	1	1	0	0	58.2062	15.091	37.3301	14.8476	17.9251	60.4593	49.5184	43.3145	4136.49	4158.93	4164.12	4132.76	4147.71	4164.23	4188.3	4203.52	277.542	245.654	96.580	163.661	100.868	278.926	6.363	345.634	8192	-8191	8192	8192	254	
77340.117	1	1	0	0	44.4526	14.5152	19.1412	53.9574	24.9293	20.8334	12.1642	92.0008	4207.89	4163.93	4197.94	4153	4117	4143.75	4083.56	4072.94	224.795	252.356	220.696	119.162	175.190	10.402	173.472	327.396	8192	-8191	8192	8192	254	
77340.172	1	1	0	0	33.6917	12.285	26.1925	22.6029	59.9828	50.5912	43.7709	28.4463	4019.81	3982.97	3904.84	3813.99	3768.07	3687.88	3607.52	3537.2	102.526	152.402	86.173	75.114	123.681	288.422	9.506	220.155	8192	-8191	8192	8192	254	
77340.219	1	1	0	0	54.5674	34.5132	11.2433	20.1114	7.23693	21.0397	29.6217	8.55361	3482.31	3421.17	3359.65	3296.73	3233.83	3194.34	3185.5	3069.26	176.001	82.701	296.535	201.275	180.812	301.004	222.805	155.226	8192	-8191	8192	8192	254	
77340.266	1	1	0	0	30.4195	8.20284	22.8302	52.8335	17.2545	23.8869	30.9476	31.3349	3018.78	2964.85	2936.14	2901.21	2872.53	2841.12	2869.04	2922.71	319.584	83.776	294.887	353.009	166.591	335.047	90.332	167.049	8192	-8191	8192	8192	254	
77340.312	1	1	0	0	28.1671	21.3417	12.6048	20.6846	42.7275	83.7822	8.81257	48.8449	2863.24	2921.13	2983.64	3043.5	3113.29	3188.5	3276.25	3387.25	173.089	34.751	22.215	344.520	71.159	344.301	175.716	144.288	8192	-8191	8192	8192	254	
77340.359	1	1	0	0	33.3443	8.14609	56.8891	91.8843	19.0449	5.10125	15.5459	12.7984	3519.44	3536.7	3877.13	2906.04	534.63	419.784	465.981	412.889	140.919	12.181	2.980	247.722	194.037	328.344	283.227	134.089	8192	-8191	8192	8192	254	
77340.430	1	1	0	0	12.5518	10.4339	8.3547	8.69002	7.99356	8.66614	16.3054	8.41577	404.005	409.827	409.428	419.144	412.986	415.159	396.952	404.51	107.158	167.854	275.724	104.465	278.538	274.749	265.494	289.185	8192	-8191	8192	8192	254	
77340.484	1	1	0	0	19.6551	6.80091	3.83304	16.903	4.15391	11.881	8.20891	11.3063	389.913	397.654	388.976	388.101	383.692	380.375	370.678	371.423	34.888	68.987	334.303	358.575	338.245	252.065	38.403	342.409	8192	-8191	8192	8192	254	
77340.531	1	1	0	0	6.25323	9.06451	19.8341	10.2341	20.2097	21.9374	8.91161	12.9696	354.668	368.231	357.832	353.649	360.606	352.202	371.361	352.697	92.519	319.128	266.528	317.366	27.846	171.671	58.149	66.383	8192	-8191	8192	8192	254	
77340.578	1	1	0	0	7.42298	8.07876	7.90399	8.69528	10.5444	30.2529	18.8048	24.6404	367.279	369.726	370.51	401.812	418.005	428.707	654.5	973.933	278.294	197.030	20.531	44.427	113.369	248.534	320.698	82.634	8192	-8191	8192	8192	254	
77340.625	1	1	0	0	47.5121	36.3001	95.6158	25.6641	128.491	38.2838	42.1322	130.398	2137.19	3547.08	9829.98	18155.6	14716.1	9389.54	9776.52	9922.88	71.490	45.205	155.420	45.834	267.932	167.695	292.896	211.552	8192	-8191	8192	8192	254	
77340.672	1	1	0	0	61.2619	74.979	61.0742	34.4821	62.0595	65.5572	18.7136	60.4944	8794	8038	7505.31	7279.45	7157.75	7470.72	8163.4	8979.24	211.575	40.598	2.879	135.122	116.222	147.089	220.294	12.299	8192	-8191	8192	8192	254	
77340.672	1	1	0	0	73.1397	44.8711	59.988	64.1591	39.742	39.0275	37.1846	33.643	9887.92	10371.1	10220.5	9492.71	7903.82	5286.62	4909.88	5527.36	29.996	210.873	50.557	16.246	198.208	218.273	140.842	206.382	8192	-8191	8192	8192	254	
77340.719	1	1	0	0	39.7905	57.6155	13.6889	13.2719	6.7441	14.0395	7.50303	5.8291	5338	3562.39	1271.54	450.649	372.452	369.442	379.798	379.053	131.216	267.163	257.050	324.027	260.268	305.656	219.622	151.980	8192	-8191	8192	8192	254	
77340.766	1	1	0	0	2.7238	17.009	5.18449	6.29523	10.4821	1.7339	10.3266	14.6605	382.111	389.308	397.822	400.37	398.639	411.976	423.154	420.096	132.198	54.085	344.306	173.028	267.471	5.005	150.644	161.773	8192	-8191	8192	8192	254	
77340.812	1	1	0	0	4.15617	8.79495	1.9738	27.1717	53.2936	18.2799	17.7455	33.4335	422.12	424.779	492.115	621.471	2204.25	2287.21	1844.8	1433.03	335.855	152.109	3.729	76.387	58.305	217.006	227.608	295.944	8192	-8191	8192	8192	254	
77340.891	1	1	0	0	39.3096	24.7613	12.8643	8.89419	13.194	13.1696	2.7218	8.89834	1132.11	937.024	795.976	696.745	636.99	562.173	509.269	473.178	339.462	351.390	130.774	321.974	284.333	22.423	126.612	58.982	8192	-8191	8192	8192	254	
77340.938	1	1	0	0	18.814	14.7586	4.78573	3.71689	7.7993	7.16088	5.91838	4.66275	428.236	374.788	362.418	301.312	266.755	245.611	220.524	193.837	315.917	203.574	184.871	1.902	149.989	21.109	101.505	247.552	8192	-8191	8192	8192	254	
77340.984	1	1	0	0	8.88985	10.8127	1.98617	6.5358	0.939811	2.42061	9.00846	2.63192	166.75	159.438	142.538	137.5	129.683	134.938	129.538	129.721	160.777	272.154	220.329	65.158	344.090	232.166	33.846	71.231	8192	-8191	8192	8192	254	
77341.031	1	1	0	0	13.4752	2.78717	1.2474	8.72048	4.11937	7.10547	7.75583	1.45051	128.404	119.087	117.466	116.697	107.5	114.317	109.543	110.731	106.252	72.505	303.990	227.945	88.426	186.823	120.314	270.295	8192	-8191	8192	8192	254	
77341.078	1	1	0	0	3.3721	3.47721	4.81161	3.9292	6.69279	8.92747	6.7603	11.2341	106.913	101.635	101.413	100.264	110.423	106.317	102.885	115.601	295.679	1.731	243.165	202.748	253.027	246.188	181.604	221.276	8192	-8191	8192	8192	254	
77341.133	1	1	0	0	3.62157	21.3713	112.318	10.7692	586.616	384.083	114.847	1155.47	118.154	142.24	284.986	152.106	1058	847.37	469.731	2262.25	66.702	295.366	85.587	101.339	257.129	265.025	270.445	261.826	8192	-8191	8192	8192	254	
77341.180	1	1	0	0	992.518	1060.11	953.999	5.47914	819.634	401.212	134.352	1186.19	1742.79	1966.55	1725.59	279.212	1464.64	904.221	487.865	2344.09	87.256	275.045	84.177	178.711	260.507	266.202	267.865	261.634	8192	-8191	8192	8192	254	
77341.227	1	1	0	0	1078.86	1074.64	981.425	12.1993	843.627	435.735	130.64	1213.81	1866.3	2025.22	1792.42	290.654	1512.84	939.322	507.957	2430.41	86.021	275.483	85.486	326.992	262.412	262.916	264.034	258.683	8192	-8191	8192	8192	254	
77341.297	1	1	0	0	1134.56	1080.93	1052.11	11.1441	865.678	418.641	142.875	1277.23	1922.11	2092.56	1866.66	278.769	1529.06	928.409	499.966	2486.04	87.294	275.383	85.690	120.157	260.301	265.110	262.441	260.669	8192	-8191	8192	8192	254	
77341.344	1	1	0	0	1102.81	1169.15	1049.21	1.20137	888.731	425.186	142.995	1315.66	1931.45	2185.26	1880.27	288.096	1596.96	968.183	531.341	2530.08	85.171	274.797	84.945	214.337	261.841	261.516	266.414	261.147	8192	-8191	8192	8192	254	
77341.391	1	1	0	0	1162.23	1144.86	1073.08	10.6408	911.812	457.831	146.318	1331.06	2001.54	2212.24	1905.87	307.683	1609.22	1015.48	562.394	2589.13	86.666	274.687	86.321	280.597	261.544	265.212	268.736	260.841	8192	-8191	8192	8192	254	
77341.438	1	1	0	0	1153.24	1201.16	1087	9.66902	911.464	436.761	130.796	1288.25	2023.23	2250.71	1962.52	321.793	1643.47	994.288	521.678	2538.42	86.414	274.137	85.241	243.180	262.261	265.222	267.447	262.776	8192	-8191	8192	8192	254	
77341.438	1	1	0	0	1181.27	1190.5	1033.85	5.52036	884.993	466.404	137.628	1264.49	1992.38	2193.81	1865.59	251.356	1526.49	928.423	455.774	2398	87.067	274.571	85.918	256.455	260.821	265.831	269.048	261.468	8192	-8191	8192	8192	254	
77341.492	1	1	0	0	1103.11	1169.12	1003.59	12.5937	837.067	399.438	132.106	1156.05	1822.24	2027.49	1703.14	182.303	1376.65	785.88	371.197	2163.92	84.887	275.151	84.818	284.183	260.669	264.633	268.298	261.853	8192	-8191	8192	8192	254	
77341.562	1	1	0	0	1004.99	1046.03	938.785	6.20184	801.74	365.192	119.631	1152.18	1633.49	1836.11	1576	136.803	1278.25	724.611	324.202	2072.61	84.887	272.650	86.347	160.699	259.523	266.737	267.563	260.882	8192	-8191	8192	8192	254	
77341.609	1	1	0	0	1005.85	1000.15	937.732	11.2418	790.064	393.926	120.961	1127.75	1562.87	1731.66	1508.64	94.4375	1230.53	683.938	287.736	2026.79	86.763	274.289	84.258	324.211	261.905	267.651	271.564	260.536	8192	-8191	8192	8192	254	
77341.656	1	1	0	0	987.387	1015.37	938.291	6.98683	779.445	388.33	121.662	1163.45	1523.79	1710.32	1473.89	65.9567	1185.56	653.183	260.889	2027.95	86.738	276.470	86.733	6.237	260.676	266.305	261.097	263.335	8192	-8191	8192	8192	254	
77341.703	1	1	0	0	979.917	1041.29	886.327	2.45955	781.338	392.592	115.416	1153.36	1503.89	1701.18	1426	54.3077	1176.34	650.168	252.601	2020.38	86.675	276.395	83.794	228.651	261.501	267.209	266.659	262.939	8192	-8191	8192	8192	254	
77341.750	1	1	0	0	983.64	1027.04	927.746	3.08893	772.524	372.871	119.47	1143.91	1517.28	1691.42	1442.89	62.6202	1170.29	655.25	264.332	2035.34	85.003	274.271	84.345	71.197	260.570	266.402	268.794	261.527	8192	-8191	8192	8192	254	
77341.797	1	1	0	0	991.829	1025.16	933.212	3.3029	779.106	390.264	116.827	1150.04	1508.04	1696.91	1459.46	65.4712	1181.14	665.288	266.413	1998.49	85.464	273.250	85.805	65.260	260.639	265.948	273.801	259.931	8192	-8191	8192	8192	254	
77341.852	1	1	0	0	952.965	1015.2	943.408	4.52469	777.032	389.451	125.185	1119.87	1484.15	1688.11	1452.94	71.5962	1181.13	676.409	272.543	1998.56	85.637	275.082	83.956	153.698	261.004	260.720	269.556	262.224	8192	-8191	8192	8192	254	
77341.898	1	1	0	0	982.384	995.952	944.506	0.778124	794.504	349.132	119.996	1174.67	1512.43	1683.13	1463.41	77.9135	1205.51	649.582	271.755	2052.8	85.998	276.515	85.191	193.943	262.083	263.316	269.002	259.962	8192	-8191	8192	8192	254	
77341.969	1	1	0	0	966.523	1003.67	898.661	1.39483	776.265	392.583	103.817	1118.54	1485.76	1676.79	1425.52	69.6587	1197.56	655.053	251.356	1965.25	84.955	274.025	85.120	176.946	260.011	261.219	270.134	261.937	8192	-8191	8192	8192	254	
77342.016	1	1	0	0	961.166	987.428	907.824	2.87645	831.004	408.359	122.277	1126.72	1477.65	1669.45	1440.7	52.5817	1200.63	655.385	249.966	1985.02	87.413	274.780	84.953	108.400	262.411	263.635	266.411	262.089	8192	-8191	8192	8192	254	
77342.062	1	1	0	0	974.789	1013.87	938.815	2.21262	803.501	373.852	131.63	1129.65	1470.77	1634.24	1440.06	38.7596	1185.25	637.399	246.01	1978.31	86.636	273.909	85.273	329.575	262.183	266.072	264.897	259.333	8192	-8191	8192	8192	254	
77342.109	1	1	0	0	966.028	984.918	935.983	4.60102	760.869	361.467	118.43	1077.4	1485.62	1657.07	1416.76	46.9375	1147.55	622.606	239.894	1953.26	85.901	275.247	85.685	285.614	261.311	264.647	270.061	259.301	8192	-8191	8192	8192	254	
77342.164	1	1	0	0	972.118	985.795	880.664	0.96506	799.915	362.706	124.518	1106.07	1466.59	1633.26	1401.43	43.4279	1169.34	633.226	235.385	1952.53	88.273	273.660	83.509	276.206	261.740	264.756	267.564	262.026	8192	-8191	8192	8192	254	
77342.211	1	1	0	0	1015.1	1002.06	892.255	4.29088	788.578	377.806	126.566	1162.39	1482.82	1653.61	1396.58	44.1779	1170.43	628.433	242.202	1994.34	86.141	275.460	84.240	247.448	263.373	267.346	265.898	261.131	8192	-8191	8192	8192	254	
77342.211	1	1	0	0	969.855	1001.4	924.131	0.862119	783.966	383.508	120.332	1150.41	1466.45	1640.84	1417.73	46.7115	1148.19	630.808	247.154	1978.47	88.121	273.835	84.140	83.023	262.103	266.453	273.519	262.230	8192	-8191	8192	8192	254	
77342.258	1	1	0	0	991.199	1002.82	896.936	6.10095	773.671	366.2	109.599	1117.52	1476.33	1640.17	1406.34	46.5192	1150.28	616.361	235.745	1992.2	87.590	274.528	86.354	255.153	262.390	264.006	266.940	260.422	8192	-8191	8192	8192	254	
77342.305	1	1	0	0	955.559	983.423	907.03	2.91448	752.796	362.136	111.894	1154.07	1456.76	1627.06	1403.95	39.5625	1146.34	614.798	233.159	1994.86	86.255	274.130	86.659	38.757	261.490	266.473	271.090	260.694	8192	-8191	8192	8192	254	
77342.352	1	1	0	0	974.264	999.457	908.085	3.09366	765.042	401.217	116.918	1120.68	1462.67	1621.89	1397.73	40.2067	1159.3	643.231	236.12	1979.62	86.808	273.770	84.727	97.643	261.331	264.427	269.147	261.107	8192	-8191	8192	8192	254	
77342.422	1	1	0	0	1002.52	976.828	873.58	9.81665	780.903	383.022	109.739	1092.66	1492.09	1630.35	1406.73	41.3798	1154.73	629.322	242.861	1971.72	86.190	275.868	83.450	290.910	261.475	265.921	260.153	260.712	8192	-8191	8192	8192	254	
77342.477	1	1	0	0	963.237	979.764	891.012	3.97398	755.237	360.369	110.122	1090.34	1463.47	1616.62	1390.79	39.399	1147.91	618.74	243.255	1951.55	88.794	273.301	84.461	276.490	260.327	265.001	267.769	261.564	8192	-8191	8192	8192	254	
77342.523	1	1	0	0	976.549	1014.76	900.045	2.66038	752.61	372.434	109.677	1102.72	1488.01	1640.53	1418.78	43.8558	1131.55	622.572	226.207	1969.76	86.941	278.064	84.931	21.053	261.335	267.120	262.828	261.879	8192	-8191	8192	8192	254	
77342.570	1	1	0	0	947.608	999.054	912.866	5.55604	785.412	393.74	121.606	1127.19	1447.75	1644.23	1399.75	40.4135	1157.5	643.764	243.702	1974.44	86.944	274.004	83.103	190.314	260.913	265.180	269.381	261.463	8192	-8191	8192	8192	254	
77342.617	1	1	0	0	1006.41	1006.37	928.22	4.78084	781.294	368.971	112.966	1112.33	1482.87	1635.87	1416.29	40.0288	1148.78	629.481	243.923	1963.05	85.891	275.376	85.089	231.055	260.982	268.525	268.097	261.307	8192	-8191	8192	8192	254	
77342.664	1	1	0	0	988.423	1016.64	891.571	9.69044	789.49	373.648	116.429	1108.59	1466.69	1639.08	1408.23	44.3846	1158.93	624.332	237.048	1966.44	87.831	274.746	85.924	160.799	261.434	262.313	264.717	261.396	8192	-8191	8192	8192	254	
77342.734	1	1	3	0	984.642	1005.53	963.582	4.38943	768.607	373.718	113.025	1167.2	1474.31	1655.37	1456.36	41.3942	1152.77	615	237.163	2002.95	86.749	274.412	85.511	240.047	262.324	265.714	266.637	261.406	8192	-8191	8192	8192	254	
77342.781	1	1	0	0	979.691	1003.88	916.642	5.39172	786.188	382.226	123.561	1093.68	1474.51	1630.72	1418.73	42.2308	1159.82	632.135	233.942	1956.17	87.525	274.591	84.392	215.929	260.651	263.478	266.964	261.781	8192	-8191	8192	8192	254	
77342.828	1	1	0	0	981.495	979.024	934.137	8.96895	778.572	379.36	128.041	1088.19	1462.22	1624	1422.81	40.5096	1151.81	640.058	243.639	1963.8	86.612	274.645	85.733	276.233	260.167	266.625	265.933	262.071	8192	-8191	8192	8192	254	
77342.883	1	1	0	0	983.658	1000.06	898.283	4.25638	766.982	383.746	137.498	1142.8	1487.06	1645.12	1396.55	44.8702	1138.4	637.558	243.447	1987.23	85.495	274.532	84.296	182.753	263.078	262.862	268.220	259.845	8192	-8191	8192	8192	254	
77342.930	1	1	0	0	975.628	1020.73	892.499	3.78349	766.386	381.076	120.599	1116.36	1471.61	1642.31	1386.12	40.2115	1137.92	639.413	238.125	1978.36	87.187	274.954	83.586	289.755	260.398	260.997	274.641	261.545	8192	-8191	8192	8192	254	
77342.977	1	1	0	0	977.932	1010.41	912.836	1.44308	764.517	379.918	115.266	1171.94	1461.32	1641.81	1403.48	42	1137.78	626.534	237.356	1984.28	86.615	274.010	83.557	252.961	262.875	266.337	266.103	261.749	8192	-8191	8192	8192	254	
77342.977	1	1	0	0	997.356	1000.73	918.214	9.37702	779.741	382.2	117.165	1107.19	1473.84	1648.27	1417.82	45.4375	1156.47	624.308	237.005	1949.56	87.839	274.130	84.281	293.252	260.868	267.304	268.284	259.421	8192	-8191	8192	8192	254	
77343.023	1	1	0	0	946.412	1011.89	910.172	3.22467	774.78	366.828	119.372	1114.24	1461.66	1639.75	1413.19	43.0433	1132.25	612.524	245.13	1948.41	86.735	273.173	85.558	99.221	261.486	264.813	267.135	261.378	8192	-8191	8192	8192	254	
77343.094	1	1	0	0	936.674	999.825	917.971	3.11387	783.258	393.531	129.168	1145.74	1446.4	1635.04	1394.14	38.8221	1142.44	632.913	244.707	1974.72	86.911	276.078	84.828	285.356	261.917	264.710	267.964	260.763	8192	-8191	8192	8192	254	
77343.141	1	1	0	0	939.833	943.342	900.779	3.19298	773.507	370.375	110.847	1133.14	1430.32	1598.83	1405.26	38.1731	1140.11	621.082	235.596	1972.8	86.046	274.048	84.421	325.604	261.204	262.664	269.388	260.414	8192	-8191	8192	8192	254	
77343.195	1	1	0	0	969.08	961.238	911.95	5.17943	740.237	357.416	121.159	1117.76	1441.26	1606.24	1414.01	43.649	1137.48	623.889	238.639	1965.35	85.251	275.644	84.934	226.207	259.925	264.097	268.365	261.564	8192	-8191	8192	8192	254	
77343.242	1	1	0	0	945.485	994.939	886.203	2.48802	771.889	395.412	122.638	1139.87	1454.36	1649.18	1389	38.9327	1161.95	638.514	235.678	1963.15	87.231	273.194	85.531	46.480	262.041	265.594	269.430	261.385	8192	-8191	8192	8192	254	
77343.289	1	1	0	0	980.167	973.118	919.24	3.24762	808.725	369.58	122.174	1132.41	1460.39	1635.52	1432.91	43.4279	1166.34	622.995	232.837	1982.95	85.581	274.356	85.518	337.803	260.374	264.607	266.335	263.763	8192	-8191	8192	8192	254	
77343.336	1	1	0	0	956.317	1009.6	920.409	2.75264	802.601	381.457	130.085	1109.69	1444.4	1638.2	1410.21	41.8462	1160.03	624.889	246.505	1970.45	86.877	272.854	84.898	11.937	260.150	263.386	264.866	261.758	8192	-8191	8192	8192	254	
77343.383	1	1	0	0	972.28	994.221	878.454	3.14901	763.013	403.09	112.017	1123.25	1457.28	1628.39	1393.75	41.851	1160.8	647.856	242.875	1977.8	87.404	274.540	85.206	2.065	262.012	264.518	266.561	260.850	8192	-8191	8192	8192	254	
77343.430	1	1	0	0	987.219	1004.46	922.29	2.44953	761.473	391.903	115.98	1077.64	1476.27	1663.05	1429	40.1683	1144.67	623.216	241.938	1945.45	87.390	274.376	85.403	348.511	260.640	264.442	263.511	263.548	8192	-8191	8192	8192	254	
77343.477	1	1	0	0	961.61	980.072	923.791	6.34852	762.17	352.863	107.397	1125.59	1458.98	1648.81	1421.81	43.2885	1139.93	606.832	229.38	1979.12	86.242	276.438	84.480	180.750	261.535	266.623	267.057	261.586	8192	-8191	8192	8192	254	
77343.531	1	1	0	0	957.856	1022.65	885.006	0.515714	776.566	370.153	125.111	1117.57	1459.97	1651.1	1404.75	43.8077	1151.72	621.654	246.567	1965.62	85.508	275.692	85.444	190.578	261.266	264.842	270.259	261.136	8192	-8191	8192	8192	254	
77343.602	1	1	0	0	945.4	1022.6	885.688	3.09171	768.565	382.905	125.433	1129.68	1446.8	1657.41	1413.8	42.2115	1161.12	633.764	243.51	1990.53	84.747	276.449	85.876	281.027	259.515	265.385	261.853	260.729	8192	-8191	8192	8192	254	
77343.648	1	1	0	0	977.652	969.306	903.688	8.04171	797.183	398.669	122.309	1116.33	1460.86	1631.07	1400.32	44.5769	1162.5	642.476	236.476	1959.37	88.117	275.785	84.669	239.477	262.317	265.840	269.377	262.432	8192	-8191	8192	8192	254	
77343.695	1	1	0	0	976.059	1029.99	920.672	0.42208	759.096	377.782	114.273	1146.21	1463	1672.39	1412.99	38.5769	1143.93	625.279	228.865	1988.45	85.959	273.618	84.677	9.004	263.730	267.042	274.613	260.966	8192	-8191	8192	8192	254	
77343.742	1	1	0	0	966.569	995.945	893.364	4.32704	762.345	358.577	111.893	1135.7	1473.59	1645.99	1397.37	42.7212	1155.62	622.654	234.168	1980.93	87.709	274.142	83.485	319.335	262.001	266.385	267.302	261.644	8192	-8191	8192	8192	254	
77343.742	1	1	0	0	982.434	1025.28	902.878	2.41109	730.287	382.511	124.653	1141.78	1459.13	1651.94	1410.18	42.9087	1127.03	618.673	242.769	1972.37	87.275	276.175	86.027	336.193	261.198	267.547	271.266	261.973	8192	-8191	8192	8192	254	
77343.789	1	1	0	0	996.66	1015.59	913.615	3.59626	752.222	382.122	122.957	1120.65	1477.31	1647.76	1412.64	36.149	1129.01	631.096	236	1985.73	87.775	273.855	85.161	177.797	260.672	265.208	271.644	261.578	8192	-8191	8192	8192	254	
77343.844	1	1	0	0	989.365	994.913	934.596	2.92522	787.69	347.016	110.374	1164.54	1450.48	1631.54	1417	45.1923	1150.43	605.885	235.697	1993.95	86.897	274.012	84.460	338.435	260.664	263.135	275.883	261.443	8192	-8191	8192	8192	254	
77343.891	1	1	0	0	953.905	995.093	893.521	5.32518	787.045	361.181	117.346	1156.38	1445.76	1625.3	1391.3	39.6538	1144.39	624.115	230.111	1971.7	86.563	275.235	85.403	115.550	262.141	263.914	265.310	260.397	8192	-8191	8192	8192	254	
77343.961	1	1	0	0	968.806	1014.99	883.808	2.00885	765.719	387.022	129.577	1110.58	1462.47	1649.27	1391.85	43.4712	1142.56	629.197	238.76	1947.18	86.787	274.036	86.203	214.318	260.792	264.363	275.870	260.784	8192	-8191	8192	8192	254	
77344.008	1	1	0	0	977.712	954.454	902.76	0.887735	759.842	371.96	105.1	1157.91	1471.62	1621.88	1392.02	46.1587	1144.3	626.293	229.303	1988.49	85.861	274.110	84.835	113.505	261.551	265.240	267.284	262.602	8192	-8191	8192	8192	254	
77344.055	1	1	0	0	955.516	996.993	889.176	3.69987	788.805	395.685	113.271	1121.34	1462.62	1638.31	1411.43	39.8462	1150.27	637.861	241.659	1970.37	86.269	273.392	85.607	307.493	261.055	264.408	266.305	261.517	8192	-8191	8192	8192	254	
77344.102	1	1	0	0	956.022	1011.16	915.358	1.20303	761.779	358.111	117.926	1110.81	1445.11	1634.46	1405.82	43.0577	1137.49	605.389	235.74	1945.99	86.740	276.540	86.445	281.579	263.313	263.853	268.974	260.892	8192	-8191	8192	8192	254	
77344.156	1	1	0	0	974.204	1000.28	885.29	3.70523	787.083	359.03	127.899	1124.72	1460.11	1637.41	1390.3	42.1154	1149.03	612.053	244.433	1950.92	86.498	272.496	84.435	147.783	261.553	266.648	266.808	263.405	8192	-8191	8192	8192	254	
77344.203	1	1	0	0	963.316	950.23	942.269	7.1564	776.423	379.419	111.515	1099.9	1454.77	1602.18	1430.3	41.6058	1160.9	624.264	232.75	1972.41	86.296	274.686	86.019	220.191	262.677	264.701	259.044	261.637	8192	-8191	8192	8192	254	
77344.250	1	1	0	0	987.22	992.485	879.794	2.98812	776.383	381.182	116.376	1081.99	1478.62	1663.88	1401.01	41.101	1144.31	636.202	239.029	1950.49	85.331	275.537	85.908	310.985	260.761	264.067	269.201	262.036	8192	-8191	8192	8192	254	
77344.297	1	1	0	0	983.329	975.92	920.428	1.13764	784.457	367.496	121.428	1111.06	1470.02	1620.3	1411.58	44.024	1156.47	624.303	240.279	1973.31	85.745	275.321	85.212	165.205	263.592	264.185	261.085	263.927	8192	-8191	8192	8192	254	
77344.367	1	1	0	0	979.64	1012.53	902.432	1.72032	766.694	374.996	116.054	1125.29	1462.03	1639.35	1402.27	46.5385	1131.69	618.846	238.534	1957.94	84.961	274.360	86.568	120.012	261.547	264.998	275.891	261.592	8192	-8191	8192	8192	254	
77344.414	1	1	0	0	933.539	1014.53	869.997	1.71054	773.449	381.752	129.816	1135.74	1433.86	1626.83	1385.03	45.8317	1151.22	634.409	244.49	1975.21	86.233	275.103	85.488	262.548	261.176	265.903	264.274	261.801	8192	-8191	8192	8192	254	
77344.461	1	1	0	0	985.546	982.123	896.342	3.88525	791.544	382.777	111.834	1127.9	1456.48	1638.25	1421.95	38.2308	1151.86	636.293	234.418	1968.66	85.891	275.521	85.282	285.197	259.912	265.019	261.838	260.313	8192	-8191	8192	8192	254	
77344.516	1	1	0	0	951.866	1022.38	918.675	0.459087	774.163	368.259	119.088	1155.44	1454.67	1643.07	1424.91	44.1587	1153.51	631.986	235.841	1996.61	85.755	276.360	86.609	317.719	261.465	267.233	266.179	261.999	8192	-8191	8192	8192	254	
77344.516	1	1	0	0	946.254	1001.36	907.619	4.2975	755.041	384.92	120.783	1147.15	1456.27	1629.04	1403.87	42.9808	1138.39	621.688	240.308	1991.03	86.285	274.989	84.696	156.534	259.360	266.397	265.855	262.094	8192	-8191	8192	8192	254	
77344.562	1	1	0	0	969.798	993.629	895.564	9.54289	778.513	374.611	118.879	1125.89	1461.01	1652.8	1393.23	45.3558	1152.4	637.462	233.543	1963.89	86.595	275.603	84.630	221.032	261.007	263.647	268.748	262.449	8192	-8191	8192	8192	254	
77344.609	1	1	0	0	914.824	985.891	896.985	3.38969	782.237	380.452	117.524	1105.61	1420.03	1611.7	1410.8	43.9519	1153.05	631.678	236.962	1937.57	86.397	277.373	85.438	331.566	260.647	266.673	267.077	262.125	8192	-8191	8192	8192	254	
77344.656	1	1	0	0	944.901	999	891.417	3.26306	752.276	383.085	108.468	1111.18	1444.06	1612.26	1389.41	48.0913	1138.03	627.014	238.212	1936.38	84.199	273.076	85.197	73.413	260.649	264.635	268.551	262.133	8192	-8191	8192	8192	254	
77344.727	1	1	0	0	959.102	992.304	895.195	4.79229	761.97	378.393	126.179	1125.09	1452.09	1635.38	1402.66	44.7548	1137.04	629.332	245.793	1948.75	87.886	273.159	87.342	281.288	261.791	263.505	268.679	260.776	8192	-8191	8192	8192	254	
77344.773	1	1	0	0	958.608	969.312	899.711	5.10484	738.074	364.195	106.529	1063.94	1460.89	1621.06	1406.96	37.0144	1129.32	619.457	236.005	1952.55	85.930	276.321	85.705	233.906	260.428	264.869	260.248	260.229	8192	-8191	8192	8192	254	
77344.828	1	1	0	0	984.868	965.693	904.111	8.14106	777.13	382.147	115.015	1108.53	1477.54	1631.19	1393.43	43.7019	1149.27	628.909	233.803	1985.46	85.220	275.393	86.418	105.903	261.410	264.442	271.823	263.599	8192	-8191	8192	8192	254	
77344.875	1	1	0	0	951.709	989.716	924.417	0.925101	746.427	408.032	111.284	1104.64	1455.2	1636.68	1404.71	39.3798	1136.64	640.053	246.899	1961.49	85.175	275.276	85.845	306.764	261.412	263.389	271.842	260.934	8192	-8191	8192	8192	254	
77344.922	1	1	0	0	970.428	1003.33	923.674	6.04889	794.512	381.881	124.107	1122.84	1481.02	1636.75	1414.52	39.0913	1154.61	624.524	242.88	1947.64	85.404	274.945	84.792	249.458	262.064	265.275	268.425	260.067	8192	-8191	8192	8192	254	
77344.969	1	1	0	0	981.44	986.568	898.128	6.41588	765.574	379.389	112.333	1080.22	1463.25	1622.77	1423.61	43.4135	1144.85	629.188	241.274	1923.57	88.024	275.410	85.075	301.309	261.446	266.396	272.331	261.074	8192	-8191	8192	8192	254	
77345.039	1	1	0	0	956.092	996.914	917.319	7.95558	754.737	374.16	124.87	1127.88	1431.94	1635.74	1412.21	44.4423	1145	624.894	242.692	1965.96	87.063	274.370	85.511	280.215	263.179	265.616	266.971	260.523	8192	-8191	8192	8192	254	
77345.086	1	1	0	0	968.099	989.907	911.832	3.95355	767.859	363.787	120.021	1135.24	1462.22	1644.01	1411.54	44.4279	1143.62	618.389	235.707	1974.5	86.241	274.206	85.085	57.149	262.008	266.783	266.976	260.778	8192	-8191	8192	8192	254	
77345.141	1	1	0	0	1000.44	993.023	904.385	5.96516	802.059	358.021	108.221	1125.07	1473.43	1634.52	1399.76	45.5337	1166.96	624.639	231.788	1943.84	87.100	275.903	85.127	307.014	259.953	267.840	267.702	260.752	8192	-8191	8192	8192	254	
77345.188	1	1	0	0	927.124	1005.6	886.321	6.91987	775.59	370.529	110.285	1138.51	1435.58	1640.06	1409.51	42.875	1150.36	623.048	231.457	1984.45	88.069	275.515	84.017	326.853	262.353	265.821	266.320	259.882	8192	-8191	8192	8192	254	
77345.234	1	1	0	0	964.241	1012.13	898.039	3.11736	781.286	369.562	107.321	1085.61	1435.13	1642.94	1401.21	43.5913	1149.59	637.284	237.639	1940.74	87.597	274.790	84.150	20.627	260.346	262.426	268.384	261.268	8192	-8191	8192	8192	254	
77345.281	1	1	0	0	927.177	1009.99	879.272	3.65318	748.614	384.694	102.697	1135.08	1421.11	1638.03	1385.2	43.7067	1132.97	629.596	231.822	1943.67	86.771	274.545	84.348	244.635	261.234	263.575	270.344	260.865	8192	-8191	8192	8192	254	
77345.281	1	1	0	0	960.454	966.258	919.801	3.13766	806.765	390.596	120.955	1140.76	1469.5	1636.59	1412.43	41.0337	1165.27	636.399	242.837	1995.54	85.886	275.493	86.423	237.108	261.545	262.158	270.311	260.997	8192	-8191	8192	8192	254	
77345.328	1	1	0	0	990.584	986.784	892.358	1.64095	794.29	362.803	115.904	1107.34	1457.94	1631.15	1419.55	40.7019	1154.98	623.202	231.202	1972.56	88.688	276.182	85.374	69.927	263.244	265.244	263.079	261.840	8192	-8191	8192	8192	254	
77345.375	1	1	0	0	967.847	1009.04	868.968	2.05284	781.503	382.79	117.622	1149.62	1444.7	1655.14	1380.63	42.649	1164.68	622.418	241.553	1988.26	86.602	274.922	85.361	208.502	261.102	262.799	265.461	260.253	8192	-8191	8192	8192	254	
77345.422	1	1	0	0	973.379	1018.37	899.347	6.08077	756.569	375.872	119.375	1117.75	1462.16	1649.06	1416.63	45.3173	1140.32	618.01	238.601	1964.33	86.596	275.254	84.030	237.034	261.985	265.492	266.328	261.066	8192	-8191	8192	8192	254	
77345.492	1	1	0	0	962.545	969.209	932.541	3.04333	761.731	369.318	113.53	1098.15	1464.46	1629.16	1421.26	41.5144	1140.34	615.13	238.365	1949.89	87.260	275.825	85.977	204.946	261.504	265.125	273.008	261.626	8192	-8191	8192	8192	254	
77345.547	1	1	0	0	952.652	963.727	905.844	6.01483	758.984	365.181	106.811	1117.86	1467.12	1620.07	1412.01	44.125	1129.42	620.356	237.5	1971.7	86.725	276.094	85.362	358.076	261.113	263.334	266.101	261.729	8192	-8191	8192	8192	254	
77345.594	1	1	0	0	972.711	983.107	907.881	0.626775	773.267	355.058	122.443	1112.62	1463.61	1621.88	1398.55	43.2067	1146.07	614.096	238.163	1972.34	87.768	275.665	82.648	158.250	262.313	265.507	272.520	259.477	8192	-8191	8192	8192	254	
77345.641	1	1	0	0	975.774	1002	926.076	3.79335	766.144	379.968	125.447	1085.7	1464.31	1626.51	1422.93	39.3558	1136.09	627.168	250.245	1957.5	87.457	274.721	85.149	1.613	262.256	266.353	268.516	261.005	8192	-8191	8192	8192	254	
77345.688	1	1	0	0	956.757	991.952	873.681	1.36329	766.189	385.78	127.437	1111.91	1461.59	1625.53	1395.81	44.6058	1148.75	631.385	239.548	1989.85	86.698	274.867	84.991	246.625	262.652	268.106	271.742	259.559	8192	-8191	8192	8192	254	
77345.734	1	1	0	0	975.122	977.885	903.576	1.82637	776.987	389.955	118.406	1113.28	1455.29	1634.52	1407.14	45.976	1149.3	633.312	240.168	1932.12	87.556	276.396	86.877	357.786	260.374	263.327	267.429	259.268	8192	-8191	8192	8192	254	
77345.812	1	1	4	0	927.83	982.394	875.863	1.27296	766.157	357.021	117.292	1115.54	1426.86	1637.11	1382.12	48.0096	1145.8	606.582	241.226	1955.8	85.232	274.449	84.812	139.436	261.835	265.432	265.906	262.728	8192	-8191	8192	8192	254	
77345.859	1	1	0	0	963.022	965.137	924.163	0.742026	791.146	372.429	111.112	1109.47	1464.03	1613.52	1408.66	48.2885	1158.03	614.106	242.899	1978.82	87.926	276.877	84.654	238.540	262.569	265.385	265.040	261.390	8192	-8191	8192	8192	254	
77345.906	1	1	0	0	968.948	986.287	928.897	4.62221	771.352	379.615	124.946	1152.48	1466.96	1635.44	1419.59	43.4471	1126.82	620.514	237.216	1976.76	86.558	272.610	84.265	304.361	261.957	267.927	267.924	260.311	8192	-8191	8192	8192	254	
77345.953	1	1	0	0	972.155	955.905	916.461	3.04058	752.579	376.499	128.415	1117.76	1449.77	1608.99	1424.06	39.0721	1147	636.995	236.317	1956.56	87.252	276.092	85.850	346.320	259.586	263.652	264.413	262.232	8192	-8191	8192	8192	254	
77346.000	1	1	0	0	995.2	1010.78	876.004	4.51344	758.223	408.964	124.513	1114.82	1466.73	1646.52	1391.94	44.0288	1135.57	635.827	241.553	1984.63	88.111	276.582	83.609	299.511	262.420	265.348	266.472	262.229	8192	-8191	8192	8192	254	
77346.047	1	1	0	0	972.295	932.204	877.766	5.11903	756.524	371.749	110.895	1099.13	1459.91	1601.29	1403.96	47.7308	1152.31	631.808	236.558	1976.53	85.792	277.676	84.248	358.972	260.545	268.545	267.015	262.223	8192	-8191	8192	8192	254	
77346.047	1	1	0	0	957.571	950.5	921.477	1.98257	750.323	384.49	115.845	1099.44	1464.5	1609.97	1413.13	43.0865	1134.03	632.99	236.106	1960.68	86.825	275.638	85.199	301.760	261.755	267.005	263.180	261.455	8192	-8191	8192	8192	254	
77346.094	1	1	0	0	992.691	995.194	901.938	2.20456	799.243	399.241	121.228	1119.04	1469.67	1648.96	1411.12	48.1587	1181.19	632.726	235.476	1990.02	87.188	274.214	85.665	25.015	261.545	266.853	263.536	263.032	8192	-8191	8192	8192	254	
77346.172	1	1	0	0	978.412	1015.02	890.616	6.9199	773.096	375.515	122.177	1120.97	1469.7	1623.76	1398.48	44.8702	1153.41	630.284	261.043	1977.8	85.434	275.111	84.169	302.182	263.041	265.660	269.289	260.768	8192	-8191	8192	8192	254	
77346.219	1	1	0	0	1004.92	980.632	920.29	5.03096	773.164	384.195	121.321	1117.16	1495.25	1622.96	1427.29	65.024	1168.17	650.135	263.255	1992.24	86.901	274.282	85.665	327.080	263.260	265.476	269.636	261.012	8192	-8191	8192	8192	254	
77346.266	1	1	0	0	975.199	987.833	874.783	3.94608	758.762	384.122	114.223	1140.75	1477.09	1693.91	1434.72	73.8846	1167.58	667.293	276.293	2021.1	85.775	274.483	85.263	240.226	260.412	263.770	262.604	262.301	8192	-8191	8192	8192	254	
77346.312	1	1	0	0	973.18	960.432	919.204	3.61862	772.126	380.839	125.825	1128.62	1506	1642.11	1441.78	86.3462	1192.36	673.736	273.077	2002.23	86.487	276.279	83.300	280.678	261.547	266.125	269.132	262.879	8192	-8191	8192	8192	254	
77346.359	1	1	0	0	981.163	987.14	884.692	5.54035	759.603	378.192	117.135	1135.04	1502.04	1654.68	1421.56	78.8173	1183.24	659.101	272.553	2021.95	85.536	275.143	83.777	276.410	259.448	264.522	263.244	259.613	8192	-8191	8192	8192	254	
77346.406	1	1	0	0	979.586	985.917	886.832	5.10338	785.4	398.093	115.891	1086.89	1491.19	1664.15	1422.99	73.8462	1165.6	650.808	261.784	1973.17	85.505	274.686	86.878	287.802	260.101	266.335	260.844	262.935	8192	-8191	8192	8192	254	
77346.477	1	1	0	0	998.113	975.74	910.661	3.57759	751.49	377.656	112.429	1101.67	1493.02	1651.11	1427.02	60.1587	1162.13	640.938	247.317	1981.59	87.008	274.410	82.271	107.799	261.501	262.819	273.002	261.318	8192	-8191	8192	8192	254	
77346.531	1	1	0	0	951.275	994.331	946.19	11.5538	751.215	366.075	126.9	1121.68	1464.89	1656.73	1441.62	65.8606	1156.65	647.043	264.966	1993.79	87.355	275.607	85.297	312.898	261.621	265.208	264.511	260.857	8192	-8191	8192	8192	254	
77346.555	1	1	0	0	964.054	954.192	882.567	1.97197	808.74	375.301	115.289	1098.33	1475.02	1639.56	1440.85	72.4183	1203.47	656.38	277.442	2001.29	86.616	273.805	84.192	288.319	260.421	266.352	268.848	260.871	8192	-8191	8192	8192	254	
77346.602	1	1	0	0	938.247	1010.66	912.02	7.98725	785.107	385.15	111.231	1117.12	1479.72	1681.01	1470.42	89.5433	1193.7	676.519	297.279	2026.62	87.298	275.383	84.544	322.820	260.754	262.605	261.523	261.027	8192	-8191	8192	8192	254	
77346.672	1	1	0	0	960.403	996.187	918.59	2.59973	777.428	357.36	108.236	1104.77	1517.37	1696.18	1483.71	115.697	1216.07	700.601	325.149	2032.04	86.795	275.402	86.458	184.332	261.800	265.027	271.474	261.876	8192	-8191	8192	8192	254	
77346.719	1	1	0	0	965.904	979.903	877.807	2.09906	766.669	368.479	116.139	1108.96	1570.25	1747.76	1521.19	164.288	1275.73	763.149	398.707	2118.79	87.255	276.222	85.669	293.244	260.010	263.885	264.497	260.500	8192	-8191	8192	8192	254	
77346.766	1	1	0	0	944.046	1000.26	888.11	7.6211	773.719	372.335	111.232	1150.67	1623.04	1837.26	1598.54	244.635	1376.76	832.534	446.947	2179.67	88.163	275.550	85.586	130.708	261.122	261.212	270.214	263.481	8192	-8191	8192	8192	254	
77346.812	1	1	0	0	957.864	992.509	868.773	11.3541	805.702	374.457	128.804	1093.77	1661.75	1849.5	1595.93	238.125	1351.54	817.13	429.341	2130.01	85.440	275.072	86.548	280.557	260.520	264.351	273.489	261.500	8192	-8191	8192	8192	254	
77346.820	1	1	0	0	980.478	971.714	914.463	11.4469	772.756	385.706	119.458	1118.65	1655.62	1810.26	1586.83	231.139	1321.57	822.755	433.995	2173.03	85.718	275.899	86.563	11.452	262.001	265.732	268.063	260.762	8192	-8191	8192	8192	254	
77346.867	1	1	0	0	958.841	1029.22	885.833	6.98567	770.376	403.831	101.124	1118.82	1630.61	1820.47	1561.98	212.389	1314.01	795.159	402.207	2140.27	86.368	275.319	85.795	284.027	260.340	265.023	262.503	262.775	8192	-8191	8192	8192	254	
77346.914	1	1	0	0	974.869	956.894	925.779	9.57416	778.733	380.174	99.8016	1115.69	1625.67	1743.72	1556.86	197.524	1303.75	775	382.288	2086.29	88.076	274.788	85.179	298.567	261.133	264.152	267.264	262.858	8192	-8191	8192	8192	254	
77346.961	1	1	0	0	977.777	999.934	900.399	7.11277	760.572	394.391	110.292	1124.64	1598.93	1777.15	1541.34	188.149	1288.39	780.712	376.457	2127.09	88.478	276.096	84.352	354.708	258.255	265.633	268.889	260.894	8192	-8191	8192	8192	254	
77347.031	1	1	0	0	960.726	1019.56	930.816	7.48631	779.557	372.684	111.594	1128.24	1603.27	1817.63	1593.81	193.312	1331.76	779.74	390.928	2144.99	86.261	273.773	84.057	300.169	261.617	268.587	262.580	260.675	8192	-8191	8192	8192	254	
77347.078	1	1	0	0	1015.8	1022.71	927.965	9.94963	800.7	392.308	111.712	1159.74	1667.49	1832.27	1625.95	209.587	1346.45	808.255	399.514	2168.97	87.412	274.920	84.506	276.811	262.352	264.718	270.579	260.199	8192	-8191	8192	8192	254	
77347.125	1	1	0	0	974.333	1008.61	896.965	15.1521	780.276	389.042	108.909	1122.2	1646.46	1847.46	1564.62	212.375	1314.25	803.231	411.529	2129.32	85.982	275.237	84.898	307.326	262.693	265.122	268.249	260.424	8192	-8191	8192	8192	254	
77347.180	1	1	0	0	930.181	992.467	852.736	5.09744	640.839	273.966	62.5779	369.496	1630.85	1813.75	1541.71	216.332	1083.3	572.88	259.207	771.409	89.424	274.120	85.735	257.244	260.831	268.013	259.795	259.851	8192	-8191	8192	8192	254	
77347.227	1	1	0	0	129.819	69.7953	60.0557	5.84875	19.6592	12.3925	7.37573	6.16666	332.615	235.082	199.413	118.74	149.207	130.413	121.558	135.048	83.812	273.636	91.353	280.657	256.348	227.951	298.112	221.636	8192	-8191	8192	8192	254	
77347.273	1	1	0	0	3.29276	7.34232	6.92643	1.18266	10.8901	7.45603	26.6168	78.3793	123.01	123.553	130.269	133.63	172.462	403.12	1319.9	7133	332.025	184.957	16.306	309.317	242.870	344.675	89.998	93.929	8192	-8191	8192	8192	254	
77347.344	1	1	0	0	46.1454	12.9099	34.0046	66.8321	12.3133	32.5146	38.8133	22.8757	9980.89	10153.1	9869.28	10161.5	10133	10170.6	10081.4	9694.83	342.679	206.190	205.932	332.291	279.226	3.376	184.613	329.085	8192	-8191	8192	8192	254	
77347.391	1	1	0	0	11.3933	35.9083	31.2986	68.4567	13.3208	15.9207	55.7285	23.1627	9287.59	8740.1	8280.59	7745.06	7556.29	7866.83	8339	9957.61	197.258	266.648	128.890	311.563	227.758	338.584	24.048	282.428	8192	-8191	8192	8192	254	
77347.438	1	1	0	0	98.9279	84.7496	74.9032	115.179	33.6956	26.907	22.6975	64.4511	13259.1	12333.6	13533.3	10959.5	7183.42	6032.99	5324.6	3507.58	77.399	44.372	84.904	349.825	230.696	63.910	71.655	318.542	8192	-8191	8192	8192	254	
77347.492	1	1	0	0	2.50275	8.42284	11.1551	12.2567	21.4953	14.8102	4.59247	5.93155	944.957	579.365	566.524	554.861	572.322	567.413	581.341	613.385	190.821	221.862	0.866	133.946	207.712	78.839	141.102	311.152	8192	-8191	8192	8192	254	
77347.539	1	1	0	0	10.0267	4.64455	12.7444	2.21346	17.3014	13.4215	12.1812	7.78588	600.048	611.851	612.404	628.38	620.683	641.678	661.029	673.442	317.358	75.907	91.087	221.969	39.250	357.881	319.160	83.097	8192	-8191	8192	8192	254	
77347.586	1	1	0	0	9.98532	13.2089	18.6476	6.38711	33.5149	8.0245	7.33691	2.20351	667.99	690.553	727.841	704.159	724.096	728.582	734.365	756.529	217.000	158.168	354.735	0.915	29.776	165.623	207.504	316.946	8192	-8191	8192	8192	254	
77347.586	1	1	0	0	18.2733	12.4609	14.2193	6.85801	22.057	24.3387	27.5951	27.8332	756.308	756.38	738.596	746.51	765.279	765.111	764.442	754.966	94.819	352.698	76.564	55.912	186.368	235.696	299.725	142.828	8192	-8191	8192	8192	254	
77347.633	1	1	0	0	27.9911	7.97069	11.8974	32.7454	4.71913	16.1134	8.58771	5.72713	787.034	778.106	791.644	807.466	795.889	812.332	814.971	812.188	172.361	162.565	194.310	310.570	320.778	230.870	39.517	291.556	8192	-8191	8192	8192	254	
77347.703	1	1	0	0	29.0568	20.9408	18.8367	11.7965	5.72116	12.4796	19.1894	18.4625	786.712	814.279	790.231	823.74	814.721	833.356	855.308	861.466	295.438	26.425	135.538	78.201	322.777	270.604	281.942	6.215	8192	-8191	8192	8192	254	
77347.750	1	1	0	0	10.9131	23.7459	7.50894	8.66991	7.81997	5.53119	14.2082	6.06766	845.649	855.966	842.25	826.019	833.26	815.192	807.933	783.317	310.453	75.509	284.460	109.435	5.107	13.231	243.516	0.252	8192	-8191	8192	8192	254	
77347.797	1	1	0	0	25.3086	10.3377	13.6178	27.982	33.3115	8.03011	0.220845	10.974	768.192	769.231	751.904	731.438	720.37	744.221	757.697	755.644	199.508	309.485	67.977	59.834	140.857	340.826	357.427	300.221	8192	-8191	8192	8192	254	
77347.852	1	1	0	0	4.90823	17.7756	6.18045	15.4422	3.01763	7.76225	2.07144	31.361	768.712	778.202	792.75	792.601	831.067	822.212	845.337	1116.62	339.920	141.181	299.919	130.163	331.296	73.290	230.802	87.138	8192	-8191	8192	8192	254	
77347.898	1	1	0	0	37.4842	31.3799	25.7934	15.231	11.6402	4.12963	13.5662	8.02536	3018.56	1463.88	560.543	294.587	197.692	171.183	172.534	164.514	259.158	36.445	323.252	52.849	124.010	237.511	109.482	13.914	8192	-8191	8192	8192	254	
77347.945	1	1	0	0	10.8559	9.71594	7.39276	3.34248	2.88116	9.33334	6.3074	8.06789	168.25	168.481	157.548	161.221	157.351	169.87	153.111	156.764	22.255	51.256	197.709	309.983	42.668	189.249	290.773	253.361	8192	-8191	8192	8192	254	
77347.992	1	1	0	0	9.58943	8.1136	8.7289	12.0888	9.97613	14.3919	9.64539	7.84611	159.995	159.942	154.837	163.577	156.106	152.49	152.298	145.837	269.971	1.297	188.478	179.173	123.600	209.349	122.703	81.931	8192	-8191	8192	8192	254	
77348.039	1	1	0	0	6.34683	10.8491	2.72328	3.55703	2.71006	2.0048	4.50603	8.81108	136.159	130.087	121.361	116.091	119.62	114.904	109.851	108.413	211.355	85.689	345.940	332.158	240.236	227.450	201.053	107.439	8192	-8191	8192	8192	254	
77348.086	1	1	0	0	4.72508	10.4058	5.71968	2.61939	4.14369	3.55205	3.67808	10.1567	105.486	110.62	103.245	105.99	98.9231	98.3702	105.005	101.856	122.885	161.519	209.823	232.573	68.551	0.918	33.855	144.097	8192	-8191	8192	8192	254	
77348.141	1	1	0	0	1.1562	1.3478	3.43995	6.64762	8.23521	3.9524	2.76288	8.38491	108.495	100.077	103.976	94.5721	106.745	106.736	105.894	114.538	86.744	10.989	62.462	160.772	18.334	265.788	1.998	227.573	8192	-8191	8192	8192	254	
77348.211	1	1	0	0	3.44833	6.738	21.8493	3.37567	51.5576	47.8133	20.0412	241.533	113.553	122.13	139.582	133.423	227.101	252.337	255.486	696	119.122	358.232	86.266	251.672	269.715	274.230	313.830	266.179	8192	-8191	8192	8192	254	
77348.258	1	1	0	0	216.766	268.826	226.827	22.1833	193.26	99.7778	24.3442	310.709	632.01	708.312	650.087	323.269	608.87	478.567	387.702	860.817	88.059	278.250	89.816	118.958	265.870	266.711	267.448	267.503	8192	-8191	8192	8192	254	
77348.305	1	1	0	0	269.654	241.995	232.732	3.5016	213.494	123.666	34.0272	321.008	695.096	720.827	683.812	320.25	629.135	472.197	363.712	857.947	92.628	282.959	86.082	212.068	268.886	271.326	261.493	263.774	8192	-8191	8192	8192	254	
77348.352	1	1	0	0	246.319	242.511	226.686	7.89658	209.519	103.743	40.4359	332.549	675.986	732.495	672.264	304.279	613.572	470.837	365.385	861.255	95.556	285.768	91.670	178.806	267.773	276.260	275.137	264.181	8192	-8191	8192	8192	254	
77348.352	1	1	0	0	288.407	271.047	266.292	7.19011	225.892	109.962	43.1909	358.023	691.312	710.904	655.779	285.438	598.899	454.808	327.168	848.471	87.660	278.632	93.872	96.491	263.222	268.638	260.696	265.719	8192	-8191	8192	8192	254	
77348.398	1	1	0	0	283.751	276.335	247.293	12.872	210.301	110.643	21.1782	328.075	674.125	710.899	631.865	254.288	555.216	422.712	286.827	815.683	92.273	283.114	90.747	272.872	262.077	269.863	276.195	266.874	8192	-8191	8192	8192	254	
77348.445	1	1	0	0	279.638	276.03	241.392	4.01946	197.515	98.5463	36.0004	338.804	611.144	661.149	585.188	200.058	513.014	351.481	248.058	734.01	90.693	279.036	92.410	143.875	267.054	267.675	268.064	267.777	8192	-8191	8192	8192	254	
77348.500	1	1	0	0	253.724	243.834	219.336	1.89056	186.529	120.74	29.5309	291.965	539.202	573.293	509.135	148.793	416.519	306.87	194.212	642.933	89.961	278.161	95.988	336.047	262.570	269.657	270.210	265.890	8192	-8191	8192	8192	254	
77348.570	1	1	0	0	243.383	242.544	226.386	2.96897	193.398	96.1761	33.3113	292.764	476.236	512.572	464.764	130.442	395.154	268.062	162.072	618.192	89.942	281.372	88.823	105.323	263.466	269.494	274.679	263.530	8192	-8191	8192	8192	254	
77348.617	1	1	0	0	235.523	241.89	217.239	3.61775	210.438	102.785	36.0269	292.513	445.659	473.298	416.63	84.899	361.293	241.837	128.466	575.216	91.293	282.129	90.353	157.818	265.253	269.195	266.437	269.185	8192	-8191	8192	8192	254	
77348.664	1	1	0	0	224.475	228.01	205.331	0.76722	185.927	98.724	27.6099	301.437	408.404	434.245	385.447	61.5337	329.476	213.721	111.062	557.207	93.617	279.334	88.207	10.156	269.555	275.225	280.457	266.567	8192	-8191	8192	8192	254	
77348.711	1	1	0	0	241.14	241.605	195.17	1.95967	183.47	97.4531	22.0896	295.529	402.726	446.163	378.625	63.7596	328.399	202.74	109.846	561.178	90.122	284.137	91.779	243.432	267.354	266.315	270.146	270.642	8192	-8191	8192	8192	254	
77348.766	1	1	0	0	240.288	222.452	213.841	6.16531	188.827	97.5167	31.0561	300.87	401.26	424.995	389.923	64.2885	334.769	211.75	110.351	559.25	94.542	282.984	87.821	85.411	264.380	272.775	277.694	265.182	8192	-8191	8192	8192	254	
77348.812	1	1	0	0	220.109	239.092	215.985	6.07555	177.52	97.0718	25.2387	308.903	398.812	449.337	391.173	66.2885	334.981	218.067	120.49	563.438	91.617	284.718	91.774	247.690	267.234	271.113	269.887	270.368	8192	-8191	8192	8192	254	
77348.883	1	1	0	0	249.444	222.086	199.393	8.97282	187.614	95.4229	32.7152	301.344	416.928	441.269	389.072	63.3221	340.24	214.913	124.279	567.99	87.687	281.882	94.012	320.725	265.838	273.818	270.353	265.217	8192	-8191	8192	8192	254	
77348.930	1	1	0	0	223.791	243.292	212.305	7.67108	190.642	88.192	34.4285	285.641	394.332	437.736	382.529	68.6731	342.385	207.308	113.471	556.279	93.960	282.240	88.441	184.993	265.449	266.915	272.964	263.485	8192	-8191	8192	8192	254	
77348.977	1	1	0	0	237.247	230.114	216.268	5.34832	183.861	104.524	26.4003	294.536	402.683	426.659	381.76	54.6731	316.88	206.38	91.6346	547.596	89.610	282.484	91.107	85.653	265.557	275.026	268.537	265.559	8192	-8191	8192	8192	254	
77349.023	1	1	0	0	225.798	228.731	209.475	5.39512	191.612	91.0271	24.2576	281.736	393.13	402.462	362.389	36.5	314.981	198.082	90.9904	535.846	93.945	279.475	87.489	333.665	258.190	268.107	284.312	270.548	8192	-8191	8192	8192	254	
77349.070	1	1	0	0	226.755	224.104	218.999	6.63057	184.255	97.2531	31.7297	290.975	373.356	404.014	367.572	41.2308	304.635	191.154	97.6635	536.582	93.946	283.407	93.874	320.295	267.295	266.674	280.982	263.549	8192	-8191	8192	8192	254	
77349.117	1	1	0	0	222.673	235.13	212.535	1.65792	193.566	93.8567	37.678	285.907	375.442	409.514	364.769	42.1394	314.202	195.255	99.5433	540.625	97.060	282.206	94.633	223.474	267.709	265.911	276.128	267.474	8192	-8191	8192	8192	254	
77349.117	1	1	0	0	226.657	224	213.689	2.02823	183.733	84.6613	28.2622	293.178	373.082	410.077	364.13	40.5433	315.288	186.639	96.399	548.168	93.701	282.465	87.460	11.268	267.138	273.274	263.837	265.218	8192	-8191	8192	8192	254	
77349.172	1	1	0	0	251.384	227.336	202.325	3.14233	192.854	97.7818	28.4201	287.765	387.745	409.88	366.615	43.601	321.38	185.861	97.0192	545.442	89.693	278.920	90.336	338.267	265.999	270.745	275.762	265.563	8192	-8191	8192	8192	254	
77349.242	1	1	0	0	239.29	224.855	215.033	5.0445	190.155	93.1496	30.9258	270.36	379.476	405.986	368.875	43.1442	315.668	183.952	97.3462	528.144	92.039	280.413	88.838	346.377	267.829	272.213	278.046	263.659	8192	-8191	8192	8192	254	
77349.289	1	1	0	0	220.369	227.812	203.352	4.51126	199.4	99.5943	34.4306	291.92	369.317	407.154	361.091	42.8269	315.115	193.462	101.399	531.394	90.902	284.309	88.112	125.690	264.083	269.445	265.992	267.643	8192	-8191	8192	8192	254	
77349.336	1	1	0	0	221.178	216.059	214.817	2.27979	184.561	96.9607	21.0647	285.045	369.688	405.649	359.899	45.1058	310.981	188.635	90.2163	534.101	94.108	277.313	93.302	353.577	266.982	272.336	255.549	265.658	8192	-8191	8192	8192	254	
77349.383	1	1	0	0	239.149	234.069	230.234	3.55968	200.21	102.624	23.8924	281.962	381.226	417.942	371.091	41.4471	328.024	192.37	92.0048	545.846	89.456	278.965	89.851	343.717	267.525	266.560	263.551	267.076	8192	-8191	8192	8192	254	
77349.430	1	1	0	0	222.131	232.51	209.538	4.8213	198.826	85.205	31.3669	304.695	374.745	411.087	356.048	39.5817	327.615	175.899	87.6202	540.466	91.823	280.973	89.271	272.337	267.902	276.206	283.285	265.327	8192	-8191	8192	8192	254	
77349.484	1	1	0	0	214.816	230.018	218.421	0.861651	189.682	100.093	32.4168	274.672	368.582	415.096	367.745	43.2308	310.101	196.303	87.0048	526.423	90.084	279.050	90.579	324.329	267.599	273.477	265.862	265.246	8192	-8191	8192	8192	254	
77349.531	1	1	0	0	235.139	237.831	202.551	9.88031	200.17	86.1793	33.4039	264.841	378.538	423.659	355.389	39.875	319.49	184.115	93.9375	532.087	92.942	280.469	88.974	316.775	265.971	263.847	273.024	269.483	8192	-8191	8192	8192	254	
77349.578	1	1	0	0	235.835	232.615	202.077	1.63625	199.183	100.484	37.5114	282.759	383.639	412.76	359.885	41.8942	315.327	194.822	96.9663	536.572	92.859	279.100	90.050	239.714	266.625	277.928	261.382	265.413	8192	-8191	8192	8192	254	
77349.648	1	1	0	0	222.417	218.043	216.744	3.53606	192.952	92.9529	30.6799	285.952	376.399	408.889	363.048	40.0288	321.644	185.183	90.4952	536.712	91.038	282.660	89.416	214.511	269.115	268.091	253.911	263.995	8192	-8191	8192	8192	254	
77349.695	1	1	0	0	220.718	234.265	221.484	3.69364	212.366	92.9741	28.8948	290.589	375.543	410.058	376.192	39.9567	319.909	186.692	89.399	540.269	91.379	280.846	88.125	250.004	265.864	266.724	272.065	263.891	8192	-8191	8192	8192	254	
77349.742	1	1	0	0	206.645	233.671	214.272	0.633218	181.629	103.16	27.61	284.789	373.226	410.899	357.226	39.7067	313.668	193.279	89.5721	538.837	91.471	281.070	91.498	287.377	267.400	271.792	285.270	265.771	8192	-8191	8192	8192	254	
77349.789	1	1	0	0	232.999	216.963	194.204	6.31871	190.123	93.1473	26.8877	276.136	377.582	405.269	354.24	34.9567	307.731	188.779	96.2212	525.798	90.764	279.858	91.766	354.609	266.673	276.625	267.616	264.762	8192	-8191	8192	8192	254	
77349.844	1	1	0	0	221.659	236.144	197.22	0.809722	186.454	101.677	33.4957	294.919	374.923	416.149	353.101	35.7308	306.361	187.726	90.4231	542.385	91.909	285.070	90.070	253.972	265.121	266.337	260.804	264.197	8192	-8191	8192	8192	254	
77349.891	1	1	0	0	230.278	222.621	210.893	2.67184	196.886	88.0416	29.9311	308.946	374.462	407.721	350.317	39.1971	318.322	190.231	90.7163	545.216	93.776	286.021	87.207	38.695	268.867	269.983	270.382	268.329	8192	-8191	8192	8192	254	
77349.891	1	1	0	0	226.874	232.142	218.04	0.860396	186.072	96.6364	35.0983	295.509	376.269	399.514	362.332	39.3077	315.149	187.644	86.2981	532.942	95.514	281.036	91.622	62.161	269.329	272.613	280.858	266.222	8192	-8191	8192	8192	254	
77349.938	1	1	0	0	222.294	246.698	200.302	2.94738	182.561	90.5107	30.4223	279.91	376.543	411.606	359.702	37.2356	309.49	190.433	91.5721	525.168	92.543	281.278	86.660	238.910	267.279	269.812	262.003	265.363	8192	-8191	8192	8192	254	
77349.984	1	1	5	0	228.083	226.892	215.396	1.83167	185.907	93.9189	33.7253	280.691	370.913	401.014	366.986	40.1635	306.308	190.399	92.1587	535.005	89.337	279.745	91.518	259.187	267.789	266.346	264.518	268.639	8192	-8191	8192	8192	254	
77350.031	1	1	0	0	228.908	217.998	226.927	3.20076	200.041	92.6152	33.6588	275.436	373.014	407.26	358.25	38.7788	313.125	182.726	97.1923	543.471	95.131	278.353	88.209	68.260	265.322	267.737	267.602	264.771	8192	-8191	8192	8192	254	
77350.102	1	1	0	0	239.105	228.818	212.381	4.77326	187.218	101.988	30.7247	298.092	383.216	413.192	359.394	39.5	320.053	189.005	92.2981	552.721	93.136	282.817	92.582	208.073	267.292	277.584	262.899	267.317	8192	-8191	8192	8192	254	
77350.148	1	1	0	0	233.742	235.094	216.366	5.68321	204.208	94.3069	22.0966	293.631	382.745	408.322	356.913	35.9471	318.481	186.178	85	536.625	94.497	277.080	86.609	343.285	267.598	271.816	254.066	263.111	8192	-8191	8192	8192	254	
77350.203	1	1	0	0	226.679	223.815	196.744	6.40739	186.108	103.017	30.646	290.335	370.923	404.87	349.928	34.3462	304.529	190.038	91.024	532.226	90.409	281.940	90.673	128.734	267.877	267.187	259.025	266.911	8192	-8191	8192	8192	254	
77350.250	1	1	0	0	223.976	241.596	205.782	7.89105	196.562	108.964	31.1057	282.118	370.269	411.798	357.63	36.6058	311.101	196.692	87.1154	537.88	93.455	282.443	91.482	182.927	265.106	272.365	263.833	268.201	8192	-8191	8192	8192	254	
77350.297	1	1	0	0	221.565	222.388	191.253	2.05259	184.536	100.633	38.6655	290.03	361.231	406.702	349.332	36.774	305.812	191.255	89.9567	532.365	92.552	284.343	91.011	1.914	270.008	273.488	275.252	266.908	8192	-8191	8192	8192	254	
77350.344	1	1	0	0	231.874	230.308	214.877	2.3523	188.972	90.7067	30.2853	285.319	378.452	406.678	357.572	34.9423	314.837	183.245	86.2067	527.365	92.941	279.896	89.497	235.338	266.929	273.656	278.406	265.034	8192	-8191	8192	8192	254	
77350.414	1	1	0	0	241.733	229.194	209.192	3.73608	190.255	94.0861	22.3618	285.452	381.615	399.37	350.649	37.1394	306.87	184.346	86.399	528.269	92.474	279.930	93.006	264.874	269.269	273.444	271.681	264.976	8192	-8191	8192	8192	254	
77350.469	1	1	0	0	222.261	221.267	209.548	5.55387	188.327	98.3758	44.2524	278.829	368.288	402.404	353.361	37.6346	315.163	192.308	92.4567	527.736	94.720	285.255	90.615	266.575	266.499	274.710	274.574	269.009	8192	-8191	8192	8192	254	
77350.516	1	1	0	0	234.529	237.587	209.604	7.43992	198.377	89.9243	29.0831	301.718	372.76	404.029	359.409	44.9231	322.87	186.688	90.0865	535.663	91.908	282.428	92.625	267.743	268.895	272.099	266.633	268.900	8192	-8191	8192	8192	254	
77350.562	1	1	0	0	237.208	216.299	220.848	4.77309	195.299	97.9788	38.3864	290.231	373.846	406.115	359.62	43.1731	314.202	188.183	94.6106	535.663	92.990	280.958	93.087	340.339	269.223	268.465	276.595	271.395	8192	-8191	8192	8192	254	
77350.609	1	1	0	0	232.622	235.126	208.06	6.02748	209.481	105.267	29.2101	273.989	379.702	404.135	353.317	43.3462	324.125	196.154	89.9567	533.986	90.847	280.520	89.250	352.643	264.230	267.859	262.936	266.273	8192	-8191	8192	8192	254	
77350.656	1	1	0	0	215.568	224.935	210.815	2.87284	195.802	97.9414	27.245	289.766	369.793	403.332	357.885	41.2981	316.582	180.183	93.0817	543.389	91.738	279.875	91.359	351.637	262.585	263.363	272.628	269.813	8192	-8191	8192	8192	254	
77350.656	1	1	0	0	227.29	223.12	216.542	5.25527	169.602	101.453	31.4958	283.875	377.957	415.404	359.173	42.6683	296.678	186.231	87.9087	534.51	90.325	280.076	92.190	276.828	262.681	270.460	280.504	263.876	8192	-8191	8192	8192	254	
77350.703	1	1	0	0	232.026	213.064	213.31	2.38798	188.943	99.1494	28.5985	280.066	374.409	400.76	359.798	36.5962	317.736	192.938	91.4952	529.76	95.239	280.911	92.747	45.936	267.138	269.531	270.290	266.877	8192	-8191	8192	8192	254	
77350.773	1	1	0	0	220.233	234.319	199.666	3.44846	193.662	86.0747	30.3392	289.144	371.812	395.231	355.832	42.2404	310.447	182.784	90.7452	537.808	93.293	277.776	90.388	253.974	266.233	275.352	272.731	267.173	8192	-8191	8192	8192	254	
77350.828	1	1	0	0	225.759	208.222	213.513	2.30528	193.56	105.941	37.2577	272.156	385	391.231	363.115	38.9231	320.159	193.303	95.75	529.404	92.807	278.777	90.385	89.943	269.351	267.562	273.745	261.911	8192	-8191	8192	8192	254	
77350.875	1	1	0	0	214.653	229.806	211.324	3.15098	191.679	94.6784	28.84	295.036	365.548	404.486	357.899	41.6202	313.38	186.534	87.4808	534.087	93.680	281.990	89.768	237.638	268.462	272.769	244.684	267.512	8192	-8191	8192	8192	254	
77350.922	1	1	0	0	237.023	219.242	201.506	1.97614	164.678	86.8683	32.3768	290.973	376.736	405.433	348.587	40.0096	298.856	184.495	94.1298	526.635	93.964	286.178	89.287	165.851	264.118	268.099	280.013	266.187	8192	-8191	8192	8192	254	
77350.969	1	1	0	0	234.093	243.523	213.49	2.50596	187.614	95.551	36.2738	289.368	376.197	403.808	357.976	44.7308	310.038	187.827	92.5385	535.909	97.209	282.595	87.005	146.938	263.446	266.416	270.782	265.077	8192	-8191	8192	8192	254	
77351.016	1	1	0	0	246.042	232.392	212.663	4.88484	209.671	100.231	31.894	290.44	384.683	408.178	364.337	40.8942	326.649	196.192	94.4567	543.37	92.151	282.226	90.060	274.636	262.573	275.414	256.324	267.882	8192	-8191	8192	8192	254	
77351.062	1	1	0	0	212.884	238.794	213.262	1.85896	195.321	97.9926	24.2747	288.734	373.659	421.433	361.875	36.5769	316.115	191.712	87.7788	542.173	92.820	283.491	91.830	349.046	267.240	269.550	282.226	264.115	8192	-8191	8192	8192	254	
77351.109	1	1	0	0	222.551	235.381	223.835	1.42603	195.904	94.5022	31.2445	304.377	378.043	418.962	369.058	37.4375	319.442	189.971	91.2548	539.139	93.250	280.104	88.760	332.387	266.611	264.550	257.667	265.632	8192	-8191	8192	8192	254	
77351.164	1	1	0	0	229.887	220.623	204.639	2.84082	190.363	96.4948	29.467	291.948	370.591	415.221	352.529	41.9087	310.745	182.995	86.226	542.37	94.247	281.638	92.213	202.767	266.174	270.371	286.864	266.900	8192	-8191	8192	8192	254	
77351.211	1	1	0	0	232.59	227.079	197.585	1.6621	178.426	104.399	32.8035	279.01	388.404	406.442	358.462	35.2548	310.481	195.361	87.7212	521.365	89.804	282.588	93.920	4.130	265.438	268.703	271.622	266.343	8192	-8191	8192	8192	254	
77351.281	1	1	0	0	220.148	236.902	209.517	7.13338	176.335	93.6229	33.6875	287.526	368.514	409.591	354.375	41.2933	298.947	185.976	92.7933	550.913	93.005	284.832	90.742	195.078	263.346	274.423	282.729	267.036	8192	-8191	8192	8192	254	
77351.328	1	1	0	0	242.684	221.557	197.357	3.40073	170.185	99.5448	35.3387	285.185	383.125	402.553	359.231	40.8702	295.221	190.654	89.0192	531.154	93.472	282.541	89.857	204.053	267.602	276.228	265.575	269.079	8192	-8191	8192	8192	254	
77351.375	1	1	0	0	243.442	228.211	206.106	4.13685	201.331	105.597	26.7202	289.888	373.913	395.317	350.553	42.4279	316.553	186.529	88.9808	529.341	90.144	279.769	93.715	8.705	267.277	267.318	279.576	266.810	8192	-8191	8192	8192	254	
77351.422	1	1	0	0	228.355	237.182	196.73	3.08355	183.439	87.429	33.7447	296.745	373.125	407.808	354.683	38.1202	318.971	189.851	92.7067	527.327	93.444	280.938	89.866	56.499	265.982	271.174	278.412	266.628	8192	-8191	8192	8192	254	
77351.422	1	1	0	0	230.956	228.715	193.671	5.65574	187.46	92.1177	35.0994	298.757	369.649	412.736	350.736	38.851	304.495	189.125	90.9904	547.673	94.452	282.788	91.651	280.909	266.838	271.627	268.625	264.585	8192	-8191	8192	8192	254	
77351.477	1	1	0	0	230.955	228.768	222.879	1.92871	190.31	89.7062	37.6797	293.221	377.413	407.947	363.37	39.5192	319.005	186.058	95.2692	541.144	92.708	279.944	94.251	216.407	262.670	271.817	265.119	267.054	8192	-8191	8192	8192	254	
77351.547	1	1	0	0	221.698	230.192	221.724	2.6417	175.483	95.9657	23.8739	293.546	371.163	399.683	354.812	42.3029	303.495	184.115	89.8173	525.668	96.990	279.069	92.482	189.445	266.535	268.579	285.886	267.938	8192	-8191	8192	8192	254	
77351.594	1	1	0	0	220.731	226.124	220.771	6.33609	184.961	96.4791	24.7638	298.93	372.159	400.538	368.534	41.5962	316.365	195.327	88.9135	530.053	94.611	280.428	91.589	100.916	265.613	262.570	278.485	266.833	8192	-8191	8192	8192	254	
77351.641	1	1	0	0	226.55	238.71	217.575	2.48608	174.376	91.488	25.4585	293.723	374.25	418.928	359.615	38.9567	302.159	191.202	93.1202	547.361	88.645	280.032	87.259	354.935	265.169	270.187	272.431	267.823	8192	-8191	8192	8192	254	
77351.688	1	1	0	0	218.386	237.399	191.029	5.97372	183.185	97.9124	33.7248	290.595	372.115	410.38	353.793	39.5577	302.875	191.288	85.9567	539.75	91.129	282.101	92.023	50.572	267.799	265.851	268.611	268.162	8192	-8191	8192	8192	254	
77351.734	1	1	0	0	221.727	229.173	220.413	2.24571	193.513	95.4736	24.6957	258.484	367.601	411.538	364.072	37.8558	309.962	190.63	90.7933	524.111	92.464	282.573	87.919	52.317	268.346	267.701	278.689	264.179	8192	-8191	8192	8192	254	
77351.781	1	1	0	0	226.901	224.981	212.968	0.865361	187.457	99.4922	27.8375	296.43	371.337	401.957	363.029	38.8606	313.409	195.457	86.2163	540.606	93.365	280.511	89.760	281.666	272.467	269.907	272.106	266.778	8192	-8191	8192	8192	254	
77351.836	1	1	0	0	226.775	238.006	225.652	4.02566	189.83	91.9198	26.0156	286.426	367.668	411.183	364.106	35.0433	311.197	184.308	89.226	533.582	89.974	282.305	88.483	27.724	263.596	271.532	278.904	265.992	8192	-8191	8192	8192	254	
77351.883	1	1	0	0	241.085	241.668	204.794	3.14468	173.461	95.1406	31.9608	288.694	373.832	411.591	348.885	37.5	299.216	180.582	85.8365	522.438	91.933	283.053	93.060	334.930	265.725	270.440	262.835	264.774	8192	-8191	8192	8192	254	
77351.953	1	1	0	0	244.589	234.9	221.299	1.91654	185.358	92.7783	40.3738	298.888	377.096	415.731	368.505	44.6154	303.481	186.375	98.0625	549.764	91.725	277.199	87.132	253.060	265.781	270.305	262.507	266.764	8192	-8191	8192	8192	254	
77352.000	1	1	0	0	226.461	247.423	203.17	4.07286	184.236	98.9695	27.82	297.77	379.096	416.841	357.024	39.9615	307.851	195.438	89.3413	535.154	85.433	280.939	94.296	337.245	264.456	276.200	259.282	263.616	8192	-8191	8192	8192	254	
77352.047	1	1	0	0	218.271	220.694	212.281	3.6812	193.431	83.3947	25.5786	287.43	357.486	402	358.438	38.2212	320.293	184.947	93.774	531.837	97.882	282.914	89.498	310.453	267.134	271.832	251.656	268.968	8192	-8191	8192	8192	254	
77352.094	1	1	0	0	232.194	219.215	222.708	9.12694	184.81	87.1746	40.7621	294.383	379.673	407.649	361.264	38.8846	310.692	181.846	93.3269	536.731	92.064	281.405	90.778	106.720	269.057	273.578	282.420	261.358	8192	-8191	8192	8192	254	
77352.148	1	1	0	0	237.875	234.727	218.844	3.22379	202.857	85.0154	33.6873	272.608	381.418	402.74	360.846	39.2981	316.188	185.962	91.0144	527.495	89.300	278.430	90.300	256.673	269.360	272.052	270.626	270.811	8192	-8191	8192	8192	254	
77352.195	1	1	0	0	244.624	241.514	222.889	2.53995	208.485	95.5789	26.089	281.238	379.495	422	367.697	37.8077	330.649	187.606	92.5577	529.986	93.014	278.691	88.221	96.123	269.583	272.219	267.980	267.435	8192	-8191	8192	8192	254	
77352.195	1	1	0	0	233.024	237.252	207.354	4.96539	194.711	94.5126	29.6772	279.948	373.822	410.298	343.567	37.5625	310.135	192.337	90.3269	524.034	96.003	276.382	94.394	257.899	265.601	273.280	280.693	268.428	8192	-8191	8192	8192	254	
77352.242	1	1	0	0	205.166	228.814	212.098	4.49929	188.784	105.763	33.3056	288.703	357.841	399.764	351.433	40.2788	317.12	193.784	87.7837	529.077	90.455	279.409	89.709	294.459	271.178	273.433	267.355	266.468	8192	-8191	8192	8192	254	
77352.289	1	1	0	0	218.488	227.785	214.561	4.71923	203.128	89.0957	39.3623	292.568	358.774	406.029	360.538	38.4375	311.894	179.827	90.7885	542.216	95.135	281.778	88.497	54.655	266.402	267.517	276.312	267.864	8192	-8191	8192	8192	254	
77352.336	1	1	0	0	239.459	234.1	224.273	1.28855	190.228	85.4457	31.0799	300.036	369.394	410.88	360.904	35.4327	305.928	185.788	85.8894	551.63	97.196	279.610	94.318	10.736	268.596	272.673	274.748	263.968	8192	-8191	8192	8192	254	
77352.406	1	1	0	0	220.657	240.996	212.028	5.94102	186.494	91.3685	29.2703	292.138	361.692	419.149	354.947	43.2308	307.611	190.562	96.6058	534.644	87.721	279.242	88.531	66.264	269.063	271.404	264.649	265.066	8192	-8191	8192	8192	254	
77352.453	1	1	0	0	238.176	237.078	212.714	1.64866	200.631	97.7714	28.2777	301.841	374.644	410.659	357.298	36.0481	318.365	191.072	86.8269	541.615	92.894	282.627	93.592	320.598	262.092	275.342	277.263	266.817	8192	-8191	8192	8192	254	
77352.508	1	1	0	0	214.148	235.526	191.409	2.52333	185.014	90.3364	29.0197	294.231	364.966	400.841	344.236	36.8846	306.26	184.428	92.5529	548.668	93.627	281.753	88.782	35.803	268.902	260.657	266.043	264.735	8192	-8191	8192	8192	254	
77352.555	1	1	0	0	228.169	223.102	192.057	6.69527	199.45	86.4067	35.5146	282.493	365.404	405.688	350.163	38.125	314.745	186.793	95.5577	523.486	95.103	282.517	88.293	52.020	266.678	277.034	280.580	269.603	8192	-8191	8192	8192	254	
77352.602	1	1	0	0	231.623	224.331	219.656	6.32879	188.022	109.141	29.2543	294.827	378.548	407.784	362.654	34.2356	311.712	199.471	96.899	539.764	90.686	279.430	89.851	257.858	266.452	268.395	275.166	266.815	8192	-8191	8192	8192	254	
77352.648	1	1	0	0	219.461	223.86	188.333	2.47434	182.412	101.736	27.6177	276.175	373.649	395.096	350.346	40.7837	303.25	197.726	99.1779	532.337	92.063	279.293	89.656	182.304	265.091	267.069	271.258	264.396	8192	-8191	8192	8192	254	
77352.695	1	1	0	0	215.171	228.864	200.61	3.301	191.522	98.9792	30.4136	288.674	372.192	404.312	351.505	40.2885	310.644	191.981	83.9423	534.99	90.969	280.276	95.083	237.797	265.523	267.031	273.509	268.743	8192	-8191	8192	8192	254	
77352.742	1	1	0	0	236.342	221.001	223.856	3.47883	209.67	85.6018	27.2078	283.005	367.284	405.428	363.505	37.4567	317.99	180.918	95.0817	536.135	90.970	280.525	91.379	154.364	266.273	273.405	270.829	266.548	8192	-8191	8192	8192	254	
77352.820	1	1	6	0	228.543	226.606	210.617	3.89564	185.337	94.1809	35.1459	279.846	376.562	405.856	362.428	41.4904	312.793	187.928	90.2404	537.548	90.578	280.515	90.789	320.309	267.830	276.203	281.357	264.885	8192	-8191	8192	8192	254	
77352.867	1	1	0	0	226.361	228.382	215.204	3.83852	184.646	103.139	38.1563	294.433	377.284	418.957	368.553	38.8125	301.365	194.024	95.4663	536.75	92.637	280.708	92.130	6.583	265.741	271.443	274.893	268.482	8192	-8191	8192	8192	254	
77352.914	1	1	0	0	230.936	219.427	201.219	4.24434	195.414	85.7228	30.1562	288.172	370.601	412.62	347.413	41.3029	308.981	185.851	86.875	529.514	93.377	279.915	88.688	28.843	267.190	267.849	273.799	266.669	8192	-8191	8192	8192	254	
77352.961	1	1	0	0	227.84	217.1	218.629	5.738	187.37	92.8907	22.9652	296.754	375.091	411.26	363.082	42.7212	311.938	193.611	91.0144	534.726	92.348	275.929	90.718	205.432	267.696	277.035	274.615	265.537	8192	-8191	8192	8192	254	
77352.961	1	1	0	0	229.833	217.602	203.172	2.97025	190.261	94.3874	26.3839	288.888	378.149	399.399	356.481	38.4375	306.909	188.308	86.851	536.226	88.545	280.604	85.678	264.453	262.906	272.899	275.249	265.738	8192	-8191	8192	8192	254	
77353.008	1	1	0	0	217.103	230.305	210.72	0.691229	189.54	102.107	29.3322	294.285	372.077	404.875	349.341	37.3942	317.125	191.505	92.7308	529.322	91.031	283.356	92.364	289.776	267.176	274.497	282.120	267.482	8192	-8191	8192	8192	254	
77353.055	1	1	0	0	245.023	224.817	202.86	1.87671	190.612	101.976	36.0117	295.631	386.428	395.308	351.601	38.899	313.308	193.293	89.7404	532.154	90.739	278.336	90.546	119.988	264.661	267.471	265.340	265.505	8192	-8191	8192	8192	254	
77353.102	1	1	0	0	228.209	228.266	215.53	4.61235	208.89	106.655	36.8055	261.305	373.548	410.25	356.476	39.9663	322.827	198.673	99.8462	521.452	92.110	279.762	96.331	72.422	266.316	274.687	281.991	271.186	8192	-8191	8192	8192	254	
77353.180	1	1	0	0	210.17	220.168	211.81	3.36332	176.588	99.7003	37.4216	293.585	365.88	407.346	362.399	42.7596	314.548	193.495	96.0529	539.702	91.339	282.927	88.227	309.881	263.295	269.311	256.200	266.152	8192	-8191	8192	8192	254	
77353.227	1	1	0	0	242.573	220.059	216.278	6.58951	190.041	93.6134	30.0984	286.272	380.216	408.005	365.087	46.0913	316.25	196.481	91.851	527.404	91.376	280.016	89.339	289.660	266.517	268.182	276.588	265.066	8192	-8191	8192	8192	254	
77353.273	1	1	0	0	245.364	235.586	188.406	6.48392	188.163	80.6087	24.657	283.308	387.702	412.519	351.529	46.3846	317.986	192.812	96.7596	539.452	93.474	279.673	89.375	314.539	269.057	272.623	267.718	264.046	8192	-8191	8192	8192	254	
77353.320	1	1	0	0	228.357	229.893	216.037	4.95025	197.627	102.557	33.0198	281.71	385.409	419.356	374.091	57.8413	335.067	211.808	117.774	559.154	93.373	281.788	90.473	231.868	267.484	270.516	283.091	263.965	8192	-8191	8192	8192	254	
77353.367	1	1	0	0	233.946	228.309	195.643	3.2926	180.4	114.234	23.7616	267.676	393.779	434.596	375.933	70.2788	336.962	222.385	124.861	560.966	90.873	282.688	90.938	283.303	266.443	268.323	276.303	263.934	8192	-8191	8192	8192	254	
77353.414	1	1	0	0	231.543	218.457	203.44	4.14946	196.252	99.9006	33.6192	289.891	414.99	448.038	394.447	87.5913	366.341	240.495	128.587	586.707	90.186	281.704	92.383	295.407	267.415	269.469	281.601	268.479	8192	-8191	8192	8192	254	
77353.492	1	1	0	0	222.669	225.071	224.109	2.7849	197.182	99.3903	28.0401	291.436	413.856	457.793	415.38	83.2788	355.226	233.885	132.99	584.115	95.663	282.403	92.461	40.769	265.468	272.522	277.205	267.255	8192	-8191	8192	8192	254	
77353.539	1	1	0	0	224.675	229.487	218.788	3.29553	199.795	98.4691	31.5188	277.636	405.524	439.082	392.971	74.5577	350.365	221.76	125.74	545.683	93.458	280.400	89.222	327.329	269.540	271.747	281.832	267.872	8192	-8191	8192	8192	254	
77353.586	1	1	0	0	231.21	256.353	216.062	11.5121	182.182	93.2305	31.5983	284.544	391.442	450.188	401.851	68.6683	344.413	208.183	111.423	559.298	91.879	280.311	90.090	213.001	265.448	274.677	269.485	263.916	8192	-8191	8192	8192	254	
77353.633	1	1	0	0	239.962	233.987	195.72	2.2849	207.974	103.115	31.6587	289.269	413.058	438.837	366.476	58.399	338.284	207.519	113.635	549.803	95.585	278.656	91.177	177.649	266.000	273.835	271.404	265.923	8192	-8191	8192	8192	254	
77353.680	1	1	0	0	223.474	229.928	195.634	6.7946	188.103	94.893	31.4308	288.027	382.553	417.971	373.058	56.5625	341.091	204.135	107.832	555.5	95.117	280.255	90.167	79.426	264.699	270.898	264.389	266.656	8192	-8191	8192	8192	254	
77353.727	1	1	0	0	235.031	236.023	199.405	6.32723	197.398	92.2256	31.6218	288.024	386.12	422.495	355.231	53.3269	328.62	209.048	106.394	555.365	95.992	280.808	91.183	195.924	267.065	270.990	274.568	264.779	8192	-8191	8192	8192	254	
77353.727	1	1	0	0	245.411	228.971	213.223	0.915681	216.93	102.981	18.9179	290.611	397.63	425.101	374.87	60.4135	357.034	217.572	115.971	571.058	92.979	279.286	89.566	249.487	268.065	271.284	287.345	266.850	8192	-8191	8192	8192	254	
77353.773	1	1	0	0	217.407	221.158	212.216	6.36994	179.35	94.4209	30.4113	291.743	395.817	429.942	393.942	80.1635	347.115	224.207	139.88	576.962	90.412	282.194	90.042	195.262	267.254	275.317	274.388	266.997	8192	-8191	8192	8192	254	
77353.852	1	1	0	0	245.41	229.173	228.435	7.35403	190.919	91.514	38.2173	279.538	438.875	467.837	438.394	100.663	379.288	259.385	167.99	613.606	92.402	278.866	89.826	144.104	266.860	269.191	266.551	269.009	8192	-8191	8192	8192	254	
77353.898	1	1	0	0	236.599	234.041	213.826	7.07231	196.245	106.882	39.8627	282.885	458.418	496.918	460.745	149.567	425.135	326.288	235.202	703.495	90.305	280.346	88.816	267.491	264.470	269.030	281.277	265.963	8192	-8191	8192	8192	254	
77353.945	1	1	0	0	217.018	233.624	198.927	24.4814	191.545	95.5857	23.1009	289.818	555.889	605.649	582.077	273.038	550.644	433.024	338.245	763.442	94.303	285.847	92.518	10.515	268.557	276.105	260.056	267.375	8192	-8191	8192	8192	254	
77353.992	1	1	0	0	224.284	231.908	216.958	7.48525	193.458	95.7544	40.2324	317.971	612.486	646.779	593.774	283.481	553.298	450.587	352.817	813.99	95.241	276.935	89.057	347.583	270.786	266.824	269.616	267.154	8192	-8191	8192	8192	254	
77354.039	1	1	0	0	231.892	231.587	220.563	6.76291	190.716	107.443	29.2164	293.223	621.01	649.803	610.572	290.173	561.957	445.269	355.947	796.202	97.250	279.161	89.947	129.861	267.792	274.111	295.110	269.079	8192	-8191	8192	8192	254	
77354.086	1	1	0	0	247.763	229.802	196.473	10.5086	195.854	103.223	44.6702	300.241	641.639	662.938	620.659	312.332	587.091	467.731	371.115	813.404	90.898	275.719	90.430	353.206	263.551	271.277	277.097	266.692	8192	-8191	8192	8192	254	
77354.141	1	1	0	0	233.255	239.642	211.286	9.93038	205.167	97.298	26.1614	290.74	658.601	673.413	625.764	304.784	588.538	473.596	372.197	807.957	97.374	280.990	89.845	0.452	264.743	271.026	268.781	267.650	8192	-8191	8192	8192	254	
77354.188	1	1	0	0	221.775	234.297	221.965	13.1885	169.765	96.585	34.9936	275.359	671.457	678.125	634.678	321.13	586.663	480.784	367.327	808.635	95.617	277.928	87.429	198.244	270.952	274.499	266.378	264.164	8192	-8191	8192	8192	254	
77354.234	1	1	0	0	231.162	193.549	221.995	8.40061	206.427	88.6244	23.4669	298.008	650.101	677.981	632.356	331.875	594.837	466.923	358.659	822.082	88.396	280.669	89.160	63.686	268.409	262.734	309.499	264.889	8192	-8191	8192	8192	254	
77354.281	1	1	0	0	253.45	227.243	229.443	10.4237	177.026	81.2195	19.1781	284.557	652.788	687.611	628.394	323.514	576.067	463.966	367.995	813.606	88.845	285.756	90.361	132.130	268.256	267.387	269.596	264.514	8192	-8191	8192	8192	254	
77354.352	1	1	0	0	222.098	223.666	212.715	4.91726	173.907	89.0086	23.1516	182.012	645.793	682.856	624.423	300.524	543.668	411.197	286.101	542.173	89.330	280.322	89.444	311.777	271.020	268.941	287.406	266.664	8192	-8191	8192	8192	254	
77354.398	1	1	0	0	95.4824	31.1275	19.8586	5.76155	8.83834	9.00769	3.79301	10.0809	306.442	214.476	159.212	120.764	122.851	120.019	120.822	119.567	97.243	271.249	78.736	9.380	33.423	174.964	167.132	319.876	8192	-8191	8192	8192	254	
77354.445	1	1	0	0	1.50703	6.02266	3.23791	6.61197	19.9356	24.1079	64.3957	132.807	116.692	128.188	143.168	238.37	595.668	1513.91	5673.44	10801.5	265.520	25.374	325.284	49.377	32.559	232.942	128.167	145.070	8192	-8191	8192	8192	254	
77354.500	1	1	0	0	46.6134	112.347	80.8414	16.2606	58.3267	8.15382	77.4152	88.8139	12788	12508	12789.4	10790.2	9726.38	9666.68	10540.4	11901.8	297.408	37.643	310.864	350.192	140.292	117.013	159.373	332.033	8192	-8191	8192	8192	254	
77354.492	1	1	0	0	35.1995	9.90264	103.415	20.2461	15.9702	16.863	15.251	8.98962	11221.7	9462.95	4950.75	991.298	370.159	365.942	383.418	420.519	343.068	339.601	261.207	302.487	266.620	237.566	342.498	158.989	8192	-8191	8192	8192	254	
77354.547	1	1	0	0	16.6791	10.6621	4.5244	4.65372	13.3445	16.6613	5.64896	12.1604	437.029	462.769	481.822	492.385	521.01	514.591	530.577	558.668	59.233	239.711	191.807	60.840	7.338	343.318	10.519	214.189	8192	-8191	8192	8192	254	
77354.594	1	1	0	0	21.22	11.5883	19.1418	27.4384	4.94344	13.9555	4.18802	11.7733	568.245	596.457	606.106	613.394	580.317	574.986	606.952	596.712	255.746	229.113	135.444	359.977	181.419	210.726	32.285	348.509	8192	-8191	8192	8192	254	
77354.641	1	1	0	0	13.0839	16.0314	11.9602	9.30026	34.2251	27.4741	7.83808	10.0158	624.471	622.5	662.034	655.899	693.298	709	705.154	729.298	121.866	285.714	56.277	72.325	220.560	218.944	312.954	356.372	8192	-8191	8192	8192	254	
77354.711	1	1	0	0	1.79069	5.94361	12.8207	20.7613	8.30906	11.3483	9.38222	17.3042	709.712	733.337	720.048	738.13	754.524	756.462	716.952	696.312	156.399	65.932	331.088	149.755	208.285	265.290	286.476	99.668	8192	-8191	8192	8192	254	
77354.758	1	1	0	0	17.8776	24.765	9.77087	29.0665	9.77988	21.1731	17.8099	22.1758	679.053	696.673	672.947	679.327	702.231	739.053	653.202	617.769	173.070	110.893	350.554	173.439	306.821	355.864	136.443	284.517	8192	-8191	8192	8192	254	
77354.812	1	1	0	0	9.75813	9.24667	13.0621	4.20184	15.0166	7.24953	9.2429	30.4536	671.606	552.01	499.981	487.303	494.654	492.452	517.5	526.519	111.221	92.363	94.530	306.191	283.490	21.431	331.035	103.729	8192	-8191	8192	8192	254	
77354.859	1	1	0	0	24.5893	21.2889	7.60339	5.36015	5.54294	20.1328	16.3278	18.7472	509.971	515.466	506.615	516.005	509.269	522.798	508.409	506.543	31.364	331.209	320.913	159.330	317.328	141.892	340.248	357.046	8192	-8191	8192	8192	254	
77354.906	1	1	0	0	12.2344	28.6333	9.37119	21.3741	8.72946	21.6906	13.4887	13.0432	531.971	527.298	530.389	512.447	533.24	531.418	520.918	541.548	203.474	300.365	193.585	87.275	305.677	32.530	44.575	129.270	8192	-8191	8192	8192	254	
77354.953	1	1	0	0	10.6807	9.7018	4.48993	15.4632	42.0588	11.4907	19.1375	39.9572	533.38	549.543	555.447	568.663	681.389	3093.69	3906.78	5386.57	166.538	166.142	9.240	350.893	146.651	329.018	333.075	333.938	8192	-8191	8192	8192	254	
77355.023	1	1	0	0	59.7459	16.2331	12.5561	31.9526	51.3851	126.801	72.5606	61.1455	2182.79	718.457	697.928	1136.49	2074.04	4473.47	6848.66	8327.94	304.022	15.203	189.817	180.028	48.005	123.637	94.764	179.091	8192	-8191	8192	8192	254	
77355.070	1	1	0	0	19.6512	22.4099	81.8227	50.9946	126.675	26.8045	23.7154	35.1325	8473.8	8633.12	9770.07	10705.9	9159	5502.86	2188.31	714.865	170.190	93.984	185.488	141.746	268.873	105.175	343.636	310.063	8192	-8191	8192	8192	254	
77355.125	1	1	0	0	8.27326	8.18556	5.11371	11.7605	18.8337	10.4741	26.8306	6.13196	553.957	573.918	584.572	595.562	589.577	595.053	603.928	594.966	212.594	242.475	215.820	47.283	256.560	76.784	303.247	143.291	8192	-8191	8192	8192	254	
77355.172	1	1	0	0	9.03437	12.3478	3.84445	17.9588	20.2443	12.2509	8.5436	25.2507	588.423	589.601	607.466	807.856	620.841	526.524	584.346	668.428	116.301	338.260	59.258	282.202	57.340	74.914	324.010	148.041	8192	-8191	8192	8192	254	
77355.219	1	1	0	0	30.2157	7.31488	16.1719	25.3674	12.0901	9.15347	2.61503	18.4449	686.428	679.26	673.178	675.183	684.279	684.514	675.75	669.221	122.931	33.280	185.256	17.390	59.211	211.902	50.244	115.862	8192	-8191	8192	8192	254	
77355.266	1	1	0	0	7.35449	11.7448	17.5123	21.2991	16.6139	27.4485	15.2834	16.6117	687.654	767.923	930.058	1241.66	1525.71	1594.08	1424.97	965.413	52.349	196.478	304.228	227.628	325.025	125.721	346.048	104.246	8192	-8191	8192	8192	254	
77355.266	1	1	0	0	7.41865	37.58	27.1762	9.997	9.98864	18.9572	20.2072	24.0169	784.24	817.971	827.361	847.37	889.774	926.99	930.538	956.562	168.915	7.069	157.332	273.414	218.988	297.550	32.903	346.739	8192	-8191	8192	8192	254	
77355.312	1	1	0	0	31.7943	10.3058	21.2422	17.2966	5.38453	13.7423	23.3362	13.1835	948.764	950.216	980.01	986.697	978.303	981.731	987.438	1009.57	28.435	105.084	191.275	270.269	321.698	110.934	115.803	310.355	8192	-8191	8192	8192	254	
77355.383	1	1	0	0	27.1117	30.41	3.96414	15.2198	15.1929	10.9409	27.0516	13.5171	991.832	992.712	991.082	1005.34	1028.64	1152.3	3069.15	4857.99	232.211	303.498	147.733	53.844	39.317	128.723	52.321	89.206	8192	-8191	8192	8192	254	
77355.438	1	1	0	0	57.7912	11.7838	48.8065	47.0617	13.2716	16.2036	18.8384	31.4095	4792.57	4871.43	4902.23	2765.1	2221.81	2203.92	2169.1	1892.87	272.577	120.885	202.035	182.041	342.507	196.895	281.697	93.752	8192	-8191	8192	8192	254	
77355.484	1	1	0	0	39.4556	30.1785	25.357	26.6405	40.5461	24.2925	24.3652	18.6732	1881.88	1876.63	1900.53	1902.9	1854.92	1879.04	1889.28	1887.1	84.942	223.546	93.281	55.367	359.007	30.339	72.362	228.777	8192	-8191	8192	8192	254	
77355.531	1	1	0	0	6.40712	32.9354	49.1798	20.291	9.31877	27.4797	21.5525	19.2318	1856.86	1854.49	1838.75	1825.26	1810.59	1729.57	1396.35	864	36.381	117.106	3.210	76.800	349.875	210.818	318.615	326.290	8192	-8191	8192	8192	254	
77355.578	1	1	0	0	3.92408	5.03698	12.9754	13.3093	11.7159	9.63723	5.40267	10.4375	481.841	362.861	289.087	234.476	223.447	201.769	206.615	188.572	278.559	304.095	80.310	272.754	358.301	126.452	20.568	341.115	8192	-8191	8192	8192	254	
77355.625	1	1	0	0	9.12642	7.67691	2.05795	9.57934	9.84159	4.98664	5.51539	12.0305	187.514	171.644	160.322	155.514	146.245	156.817	154.49	158.183	314.469	202.110	100.462	295.314	157.686	299.565	234.078	298.884	8192	-8191	8192	8192	254	
77355.672	1	1	0	0	5.4381	9.25726	3.97532	2.93401	8.57803	12.0834	12.9517	1.51502	150.587	147.87	150.49	151.447	154.356	152.644	149.115	151.894	204.120	54.479	115.687	33.147	165.637	149.948	235.793	266.654	8192	-8191	8192	8192	254	
77355.719	1	1	0	0	4.48817	3.41565	0.448863	8.23363	6.51741	4.25532	1.48597	6.30914	144.548	149.808	144.5	140.909	132.962	126.889	135.399	133.986	101.940	9.887	277.769	130.303	246.231	298.609	308.268	279.707	8192	-8191	8192	8192	254	
77355.773	1	1	0	0	4.41529	3.44822	9.64963	8.19374	5.49664	2.62234	2.22734	15.0037	123.423	130.389	119.63	115.51	114.62	119.562	111.668	116.447	149.144	99.163	327.420	336.362	70.799	343.096	254.969	338.090	8192	-8191	8192	8192	254	
77355.820	1	1	0	0	12.289	2.02869	2.39463	3.98794	9.78488	6.30202	7.15379	15.2181	114.192	109.692	113.303	119.202	122.438	120.404	117.341	115.865	310.203	57.196	174.151	13.357	149.142	36.703	68.360	342.306	8192	-8191	8192	8192	254	
77355.891	1	1	0	0	2.50397	2.68811	4.2656	7.54158	9.73877	12.5466	20.4521	67.0178	116.827	124.495	130.091	120.923	164.668	202.928	238.053	399.808	261.606	347.194	142.905	96.506	221.175	275.836	214.237	263.668	8192	-8191	8192	8192	254	
77355.938	1	1	0	0	48.7291	59.0343	58.6313	13.7272	61.4162	26.547	11.802	73.1189	362.471	368.332	364.611	289.024	372.702	343.399	314.231	451.312	96.960	266.992	100.489	244.943	250.721	266.216	225.672	258.757	8192	-8191	8192	8192	254	
77355.984	1	1	0	0	64.36	48.4747	47.898	14.2457	55.3719	12.0057	8.88359	103.993	387.63	396.062	384.043	299.163	376.952	331.668	320.043	454.688	102.090	292.756	111.130	231.177	265.539	275.740	259.345	268.165	8192	-8191	8192	8192	254	
77356.031	1	1	0	0	74.5548	61.6265	61.9463	7.19005	68.2552	22.6237	21.4138	82.902	391.188	403.298	382.034	317.385	391.846	348.837	312.183	451.611	95.089	292.516	98.296	287.485	267.682	237.241	271.329	272.077	8192	-8191	8192	8192	254	
77356.031	1	1	0	0	69.3949	62.3577	56.9153	11.8053	49.4112	33.9571	9.85388	88.1079	400.582	392.183	394.587	289.053	361.692	333.38	302.606	427.957	99.580	281.732	82.384	170.491	258.713	291.314	242.520	275.817	8192	-8191	8192	8192	254	
77356.078	1	1	0	0	59.907	66.8822	57.7752	17.4964	50.6344	23.3125	8.48622	94.0837	379.048	374.971	373.673	265.764	344.005	301.889	267.212	398.75	77.605	309.069	71.816	29.115	278.677	228.039	339.910	270.923	8192	-8191	8192	8192	254	
77356.133	1	1	0	0	78.0656	49.1226	74.9373	5.92032	38.7788	22.7311	10.5362	92.1281	346.495	337.731	325.236	216.827	294.26	255.24	223.894	343.721	104.229	288.204	103.363	246.010	266.798	274.695	195.154	273.979	8192	-8191	8192	8192	254	
77356.180	1	1	0	0	55.4189	54.9305	57.4504	4.97069	60.4564	37.4084	11.3601	78.6077	276.534	276.716	253.981	172.553	239.197	198.125	158.341	275.538	97.007	272.721	89.083	115.380	281.090	284.424	291.312	270.947	8192	-8191	8192	8192	254	
77356.250	1	1	0	0	52.5956	59.8576	50.4435	7.76785	48.2874	30.6192	9.72681	84.4834	225.159	235.832	199.178	120.615	184.423	153.928	123	227.125	99.024	300.553	102.737	73.818	272.958	270.663	355.984	276.729	8192	-8191	8192	8192	254	
77356.297	1	1	0	0	65.2208	52.6965	54.2436	6.76797	51.2682	25.788	7.36677	81.4282	175.284	185.548	172.688	80.5096	155.731	118.274	86.6154	212.457	101.280	289.287	96.283	89.216	277.953	271.255	240.056	267.164	8192	-8191	8192	8192	254	
77356.344	1	1	0	0	48.487	51.8109	56.7035	2.52517	48.1906	29.5867	8.89511	72.8402	143.654	148.577	146.923	57.7644	127.562	92.7837	66.2788	193.048	96.233	277.223	102.070	13.938	276.367	285.239	329.551	263.709	8192	-8191	8192	8192	254	
77356.391	1	1	0	0	59.6682	58.7474	51.946	3.50444	50.9227	28.096	6.89008	83.3888	142.769	142.615	130	49.6731	128.303	101.923	71.1827	192.793	92.290	283.339	88.505	5.380	275.860	276.355	305.783	265.972	8192	-8191	8192	8192	254	
77356.438	1	1	0	0	54.6628	50.4011	66.4453	5.59037	48.3761	23.5373	13.1529	75.9499	133.779	143.072	142.188	61.3221	127.49	94.2837	75.8125	191.865	96.929	283.512	98.997	84.025	267.802	269.717	270.262	279.476	8192	-8191	8192	8192	254	
77356.492	1	1	0	0	62.692	47.6985	43.0159	0.158048	52.7079	23.1011	12.1545	78.4772	143.803	146.053	130.808	61.774	131.731	97.5144	75.8558	199.284	105.166	296.555	101.028	201.748	280.796	269.074	257.882	268.837	8192	-8191	8192	8192	254	
77356.539	1	1	0	0	60.2879	60.7855	53.7263	3.97785	51.2636	20.2138	13.2163	68.3544	144.332	148.644	140.457	63.4087	139.159	101.279	78.2788	195.173	106.285	284.065	112.890	341.560	260.199	281.589	270.175	263.656	8192	-8191	8192	8192	254	
77356.586	1	1	0	0	61.9626	48.9512	44.1113	3.09849	46.4804	28.5289	6.43936	71.706	151.274	154.197	138.111	60.1875	138.399	109.793	78.8173	193.875	99.892	303.325	100.105	1.506	280.443	292.581	250.844	271.937	8192	-8191	8192	8192	254	
77356.656	1	1	0	0	44.0468	60.991	55.3689	8.13517	48.9028	24.4203	8.53168	80.1046	143.981	149.957	139.832	59.3029	133.726	91.7837	69.6635	185.519	105.714	286.058	94.465	74.771	274.517	274.300	304.211	280.035	8192	-8191	8192	8192	254	
77356.703	1	1	0	0	47.9856	49.413	49.9825	7.77866	52.3943	28.8733	3.49094	77.7846	126.62	140.812	123.212	47.0433	115.538	87.4615	54.9567	177.269	96.154	304.324	96.820	339.345	264.693	260.184	356.206	269.850	8192	-8191	8192	8192	254	
77356.758	1	1	0	0	56.7345	51.3763	50.8319	4.13641	58.6213	26.4563	5.30728	72.6357	125.841	128.962	120.986	43.0577	119.601	80.0288	48.6394	172.404	89.237	285.632	89.939	11.560	269.302	274.142	289.317	280.290	8192	-8191	8192	8192	254	
77356.805	1	1	0	0	69.8348	49.0649	56.0728	5.80149	44.0223	28.0603	7.34523	81.7535	128.13	128.851	119.798	43.4519	112.385	83.5577	55.7885	177.769	98.722	284.209	100.810	232.324	271.724	275.681	280.401	280.378	8192	-8191	8192	8192	254	
77356.805	1	1	0	0	50.3371	62.9633	45.3336	0.814236	48.8728	20.0054	8.46866	68.8958	117.255	129.038	122.495	45.4567	113.774	75.0433	57.5433	167.452	98.813	280.454	93.451	356.987	271.660	281.637	262.953	269.590	8192	-8191	8192	8192	254	
77356.852	1	1	0	0	48.2023	49.7651	60.0032	4.96032	43.6053	26.9031	12.5277	64.9995	121.163	123.351	121.048	39.1923	112.784	84.2596	52.6058	168.909	94.513	281.268	103.309	41.791	264.812	269.831	264.631	272.398	8192	-8191	8192	8192	254	
77356.898	1	1	0	0	59.6514	54.1123	48.9667	4.14577	44.0475	18.0664	12.3271	97.0008	118.837	125.625	117.163	43.7356	113.139	82.0865	55.1106	180.712	99.693	288.294	95.203	63.006	270.993	270.832	302.102	274.931	8192	-8191	8192	8192	254	
77356.945	1	1	0	0	55.8781	55.956	45.973	2.27729	52.8432	31.8549	8.8485	75.8977	122.697	125.255	118.875	38.8365	109.495	82.1779	54.8654	173.918	102.129	280.752	98.907	86.805	264.328	274.154	271.259	273.755	8192	-8191	8192	8192	254	
77357.016	1	1	0	0	49.9262	59.5783	50.4669	4.97397	49.4056	21.5145	7.48729	75.4045	115.851	123.846	117.649	40.0962	108.308	75.2933	60.5385	165.88	90.466	286.678	97.338	5.920	279.213	272.852	277.002	265.666	8192	-8191	8192	8192	254	
77357.062	1	1	0	0	47.7783	58.4366	51.6813	3.76514	41.341	28.0075	6.97035	82.127	116.784	131.659	113.885	36.5	108.019	76.5144	52.0096	169.962	102.718	288.817	88.160	240.345	275.185	281.417	306.480	273.950	8192	-8191	8192	8192	254	
77357.117	1	1	0	0	51.7449	65.6365	53.7108	1.57207	48.8916	27.784	4.86966	74.5834	119.12	130.082	116.048	44.625	109.933	79.8317	55.726	166.615	100.886	290.126	104.793	282.735	273.012	278.104	227.078	277.196	8192	-8191	8192	8192	254	
77357.164	1	1	0	0	57.0489	57.9282	51.6645	1.86354	44.9658	28.0033	5.56407	73.5802	119.442	129.644	119.207	42.1442	108.543	77.3798	52.8125	172.894	91.602	297.638	92.505	4.065	267.592	271.234	255.002	275.461	8192	-8191	8192	8192	254	
77357.211	1	1	0	0	64.6519	45.2208	55.1844	3.68442	54.6914	26.7913	7.3289	75.0706	125.688	121.938	116.038	38.3413	105.793	78.1346	55.0144	170.125	97.970	297.349	94.035	298.085	280.958	283.440	305.070	264.606	8192	-8191	8192	8192	254	
77357.258	1	1	0	0	53.4015	60.6411	56.9724	5.87562	51.8211	19.4755	8.96385	70.0144	120.596	126.788	120.731	38.0481	106.774	76.8654	55.5721	166.183	94.953	277.677	101.182	137.163	269.548	256.741	287.239	265.331	8192	-8191	8192	8192	254	
77357.328	1	1	0	0	52.1411	48.8592	48.0185	3.1789	47.0807	25.7218	8.63314	80.1332	120.12	121.923	116.317	39.2933	115.024	78.9375	56.6923	171.202	84.279	287.675	99.598	18.694	276.584	280.540	297.490	271.022	8192	-8191	8192	8192	254	
77357.375	1	1	0	0	51.3892	48.5424	52.4603	2.73308	50.9545	30.2029	5.67623	72.5115	124.899	120.01	120	41.5144	114.5	77.4327	52.7067	166.644	88.646	290.781	94.573	270.385	269.306	270.375	306.722	266.447	8192	-8191	8192	8192	254	
77357.422	1	1	0	0	64.5506	57.0973	40.1067	2.32509	47.9515	19.2883	4.66338	74.886	124.918	130.611	112.524	37.5913	112.207	79.2212	55.6683	170.745	98.403	283.323	103.431	350.248	276.395	282.952	241.339	273.558	8192	-8191	8192	8192	254	
77357.477	1	1	0	0	60.1031	55.6063	47.3587	3.80922	48.5131	23.3948	9.19841	70.6821	130.058	126.817	113.558	45.125	105.457	80.9567	52.1394	166.75	92.916	289.948	93.318	358.566	268.247	279.284	290.864	267.819	8192	-8191	8192	8192	254	
77357.523	1	1	0	0	53.9375	58.9464	49.7758	6.12026	50.0133	29.7072	2.99428	81.7284	119.236	136.37	115.163	39.601	108.317	76.774	50.8365	174.298	100.351	289.366	94.871	89.316	277.890	276.360	302.852	271.686	8192	-8191	8192	8192	254	
77357.570	1	1	0	0	52.7982	61.2025	58.8759	1.36142	39.8705	24.5711	14.804	72.6029	119.971	131.837	117.803	38.4471	106.433	80.0433	53.7837	173.971	99.164	281.539	94.852	168.627	266.679	278.841	325.732	265.285	8192	-8191	8192	8192	254	
77357.570	1	1	0	0	50.0914	56.379	44.0313	5.61216	53.465	22.2728	6.7179	67.0381	120.471	126.529	114.149	44.6202	114.769	79.9038	56.4423	168.88	100.779	285.851	93.667	18.920	274.477	278.587	259.980	267.584	8192	-8191	8192	8192	254	
77357.617	1	1	0	0	58.086	45.8951	50.233	4.0176	48.1431	33.4408	9.42292	69.7476	123.942	120.538	122.447	37.7837	108.966	79.3798	55.2692	164.351	96.563	303.803	100.707	68.658	278.464	268.803	284.812	266.778	8192	-8191	8192	8192	254	
77357.688	1	1	7	0	60.7311	46.1491	51.8864	3.71303	48.7884	28.5136	5.25823	71.1523	124.207	117.524	113.106	48.274	113.168	78.8894	54.4038	171.577	98.146	282.753	91.271	57.519	269.371	264.705	299.408	278.393	8192	-8191	8192	8192	254	
77357.734	1	1	0	0	57.1281	59.0829	50.2327	5.78473	54.0746	18.5721	10.2862	78.4177	129.736	125.514	117.236	41.3846	109.135	76.8846	55.399	176.663	98.314	289.143	93.206	75.081	274.947	265.740	289.133	267.552	8192	-8191	8192	8192	254	
77357.781	1	1	0	0	50.7117	51.6833	51.2419	7.576	46.0266	25.1726	2.13529	77.3379	122.048	125.947	125.49	39.3077	109.731	81.4135	47.9519	163.317	91.950	289.170	95.577	15.857	270.446	279.607	290.770	277.420	8192	-8191	8192	8192	254	
77357.836	1	1	0	0	55.735	45.3551	47.5155	5.45527	46.2673	24.6308	4.69093	83.7053	127.188	130.288	114.264	40.0433	105.288	75.1875	48.25	175.274	99.246	292.696	104.074	341.453	268.572	290.214	312.503	272.458	8192	-8191	8192	8192	254	
77357.883	1	1	0	0	49.7238	63.1232	57.377	4.43229	47.6132	34.6432	4.9934	86.8733	121.841	132.683	116.168	42.0337	112.144	76.5577	46.9663	175.553	92.084	279.585	96.785	257.440	271.488	278.392	313.257	270.903	8192	-8191	8192	8192	254	
77357.930	1	1	0	0	52.3746	51.0776	55.4099	4.50611	46.8362	26.6073	12.4025	71.441	120.562	122.332	114.635	37.6587	103.63	79.0096	55.5048	172.721	89.218	288.818	100.621	167.637	271.790	270.762	318.596	267.689	8192	-8191	8192	8192	254	
77357.977	1	1	0	0	53.4062	53.2624	46.4799	5.98459	44.6511	25.2251	1.83006	79.6002	117.053	131.553	111.173	44.3894	113.24	82.5769	55.8077	176.308	94.745	294.315	88.745	61.394	281.023	283.938	24.422	269.818	8192	-8191	8192	8192	254	
77358.023	1	1	0	0	53.569	53.9922	55.5426	4.94073	61.9218	26.7103	11.7734	72.9416	118.784	128.221	115.447	40.0865	112.106	82.4904	50.7067	174.067	101.876	283.141	99.195	319.500	262.402	282.276	284.954	270.504	8192	-8191	8192	8192	254	
77358.070	1	1	0	0	52.5208	47.4429	51.9128	2.32531	52.1264	32.8911	8.63796	67.0049	125	115.562	121.447	39.25	112.231	88.9231	59.6635	168.062	92.999	281.074	99.940	292.929	279.605	267.109	229.582	267.317	8192	-8191	8192	8192	254	
77358.117	1	1	0	0	53.9328	64.5422	52.53	3.18303	42.6913	29.2283	16.9148	78.3348	126.25	139.303	116.428	42.875	114.841	83.2596	54.6394	174.183	98.200	275.449	97.470	338.578	276.039	279.153	282.044	271.548	8192	-8191	8192	8192	254	
77358.195	1	1	0	0	53.5325	48.4151	48.9421	2.41432	56.9128	30.9884	7.78274	74.9544	121.841	130.26	120.562	40.4519	116.986	87.2115	57.4952	176.014	98.528	278.469	98.315	220.665	264.259	273.657	309.493	272.505	8192	-8191	8192	8192	254	
77358.242	1	1	0	0	58.7548	56.8707	42.3614	1.91178	46.6315	30.9081	1.63514	68.867	123.543	131.553	120.894	40.2308	105.793	86.8221	53.8558	171.12	96.836	286.110	102.660	349.968	276.238	279.571	94.981	266.855	8192	-8191	8192	8192	254	
77358.289	1	1	0	0	46.9021	52.3777	51.3358	10.9206	44.1718	23.3272	11.5325	70.6019	116.856	131	119.938	44.0288	112.995	79.9327	56.0962	175.808	93.151	291.429	101.471	120.719	279.909	273.805	308.952	280.994	8192	-8191	8192	8192	254	
77358.336	1	1	0	0	58.6953	56.7706	38.4635	1.3123	47.0799	20.986	10.6937	79.61	128.139	132.091	111.933	41.1923	112.26	74.0913	56.3894	176.548	104.783	289.431	93.484	60.673	276.435	265.116	268.740	265.083	8192	-8191	8192	8192	254	
77358.336	1	1	0	0	54.0586	56.5213	57.475	6.86401	43.3489	26.6824	10.8138	62.2982	123.784	131.236	116.38	41.8077	106.966	76.5144	55.2885	163.913	96.241	288.308	87.633	296.819	259.786	275.788	311.574	271.383	8192	-8191	8192	8192	254	
77358.383	1	1	0	0	60.2056	59.0141	51.7824	5.16064	43.133	20.3158	3.08544	84.1421	117.683	132.74	113.442	39.8365	109.197	79.7019	55.7067	178.649	100.455	283.888	86.282	207.486	270.225	258.679	223.973	278.126	8192	-8191	8192	8192	254	
77358.430	1	1	0	0	55.5241	64.174	47.0784	5.50742	48.5687	23.9482	6.61721	81.1478	123.832	135.067	114.365	39.75	112.115	81	51.2644	176.519	99.892	286.389	103.326	154.707	271.542	278.818	268.780	262.958	8192	-8191	8192	8192	254	
77358.484	1	1	0	0	51.6266	58.6175	44.4174	2.70158	54.5064	26.2048	12.2625	73.7352	119.24	134.428	119.351	38.8654	114.005	77.2452	55.3221	172.058	98.841	280.397	82.322	151.704	267.671	281.716	290.626	264.720	8192	-8191	8192	8192	254	
77358.555	1	1	0	0	49.8031	57.0773	50.3342	3.01331	40.4882	22.466	7.30484	72.3224	113.019	128.082	117.082	41.0433	104.933	79.0144	48.0913	177.615	99.955	284.697	94.091	226.480	276.544	273.374	249.519	269.624	8192	-8191	8192	8192	254	
77358.602	1	1	0	0	62.1625	50.9772	49.5672	3.19001	49.9592	25.3602	8.74902	77.2283	126.202	122.822	117.909	37.274	106.486	83.0529	54.3558	176.221	91.637	287.547	92.468	87.825	274.526	279.245	267.467	261.899	8192	-8191	8192	8192	254	
77358.648	1	1	0	0	56.4577	62.007	53.4899	3.07266	48.4816	25.6718	14.2438	77.4556	116.702	126.394	116.865	40.3654	103.341	80.6683	50.5625	168.317	100.761	274.769	95.112	185.126	263.344	276.995	303.456	271.281	8192	-8191	8192	8192	254	
77358.695	1	1	0	0	62.1275	54.8477	53.6727	4.89833	42.3742	17.1145	4.15464	78.9383	124.24	125.519	113.74	38.1827	107.341	73.6779	50.6731	182.029	103.523	287.207	96.475	109.763	266.154	267.413	214.446	273.497	8192	-8191	8192	8192	254	
77358.742	1	1	0	0	54.018	56.1761	50.5657	4.42173	46.1117	26.0391	11.8465	79.7451	117.562	128.692	121.692	38.6827	112.087	81.6442	54.5673	170.346	93.345	289.991	96.153	103.687	273.898	284.988	287.388	266.869	8192	-8191	8192	8192	254	
77358.797	1	1	0	0	51.634	63.2263	51.3622	3.27745	45.0711	31.031	10.7111	82.7833	121.394	128.019	120.654	41.7115	109.255	85.2596	54.3558	172.077	84.563	288.809	91.230	150.569	254.673	268.888	264.195	273.727	8192	-8191	8192	8192	254	
77358.867	1	1	0	0	55.2833	57.6028	59.3138	3.4035	49.6262	28.431	5.6528	76.7596	121.303	126.938	113.591	38.3125	112.356	82.5192	53.3125	176.74	103.016	286.776	95.472	125.676	260.060	275.613	282.485	274.421	8192	-8191	8192	8192	254	
77358.914	1	1	0	0	55.8106	65.0842	43.4512	4.76586	35.642	26.822	8.06135	73.4826	123.269	141.293	117.356	46.2019	107.034	83.0192	52.2067	175.894	101.981	288.059	92.692	264.359	270.139	255.639	268.681	272.563	8192	-8191	8192	8192	254	
77358.961	1	1	0	0	58.3397	59.5985	58.7729	1.63945	47.5113	20.948	6.55416	73.4575	122.659	130.63	129.726	42.7981	112.24	86.9952	56.1394	168.043	101.238	291.959	100.222	355.899	269.567	267.607	277.538	274.432	8192	-8191	8192	8192	254	
77359.008	1	1	0	0	52.9667	45.3835	43.9512	3.36139	48.4015	27.9861	10.1085	79.151	128.601	124.817	111.337	41.1683	115.106	80.6538	57.9904	170.197	89.812	285.049	98.324	271.509	273.061	258.656	289.140	269.931	8192	-8191	8192	8192	254	
77359.055	1	1	0	0	55.9893	61.0063	44.5067	2.00466	57.9929	24.4699	10.7571	73.3717	121.226	132.986	117.572	44.3654	114.188	83.5288	58.1683	171.933	107.874	280.988	91.409	45.505	269.175	274.405	258.070	272.713	8192	-8191	8192	8192	254	
77359.102	1	1	0	0	55.7281	58.7124	49.2973	1.53759	50.5655	29.4112	4.32934	83.3213	122.058	136.75	114.423	45.4279	112.231	81.8558	59.0673	177.38	106.056	290.656	91.003	239.167	276.050	284.717	350.826	271.672	8192	-8191	8192	8192	254	
77359.102	1	1	0	0	50.1463	57.5519	54.2748	4.9712	50.2257	26.9986	9.60774	75.7109	121.601	136.173	125.668	42.1683	111.688	82.3413	50.4135	177.01	96.828	288.843	91.507	292.027	263.739	282.910	280.810	269.212	8192	-8191	8192	8192	254	
77359.156	1	1	0	0	58.3071	50.2992	49.5827	2.88549	48.0184	25.4697	6.83992	67.4234	128.731	127.01	114.486	42.9615	112.952	84.5	54.6875	171.812	98.281	285.126	102.452	119.468	273.930	267.497	330.402	279.123	8192	-8191	8192	8192	254	
77359.227	1	1	0	0	53.9907	54.9936	53.387	1.12366	55.9918	27.6542	9.82666	71.5774	119.543	131.913	122.115	42.2308	113.005	82.9279	59.476	174.861	102.873	287.068	95.142	201.151	267.654	251.943	258.567	273.123	8192	-8191	8192	8192	254	
77359.273	1	1	0	0	45.5386	50.8645	53.0422	2.5133	47.6837	26.0021	9.53974	78.0636	127.822	124.346	121.716	39.5721	114.053	76.9375	60.3462	168.942	100.653	280.032	90.719	168.617	274.671	280.970	259.095	266.673	8192	-8191	8192	8192	254	
77359.320	1	1	0	0	56.318	55.7597	53.4617	3.02789	53.7742	24.2159	11.7877	71.1023	124.5	129.438	123.332	42.1106	114.865	83.149	56.6442	174.736	94.969	283.667	98.291	150.240	269.580	291.135	259.706	269.097	8192	-8191	8192	8192	254	
77359.367	1	1	0	0	49.368	59.945	43.4654	1.16349	42.0829	25.9937	8.112	72.9928	120.514	136.779	123.812	43.3654	107.962	79.5529	56.2548	171.519	104.997	277.865	94.489	135.503	273.011	264.793	267.064	266.495	8192	-8191	8192	8192	254	
77359.414	1	1	0	0	49.5276	52.6805	39.4658	1.84755	49.3035	25.6018	4.59878	76.6692	123.269	136.654	113.87	43.399	119.062	83.6923	60.2788	168.356	91.839	275.612	101.961	257.278	272.152	262.516	20.804	267.582	8192	-8191	8192	8192	254	
77359.469	1	1	0	0	49.6486	48.4439	47.5861	2.76062	56.104	34.3903	8.77922	74.7264	123.99	127.635	121.274	44.6394	114.712	84.0096	59.3654	173.976	98.246	291.064	91.852	278.362	270.606	274.847	226.828	277.598	8192	-8191	8192	8192	254	
77359.516	1	1	0	0	51.3961	58.0681	51.4185	10.0506	50.6105	19.3596	17.593	82.4556	120.433	139.361	115.697	43.726	110.875	82.1538	55.7981	178.312	100.120	287.696	86.733	86.534	280.623	261.383	270.484	268.704	8192	-8191	8192	8192	254	
77359.562	1	1	0	0	46.672	43.5644	52.9144	5.29521	51.2794	17.155	11.771	76.2696	119.505	119.072	119.255	39.4952	116.288	76.5625	53.5577	170.707	92.296	285.557	96.646	49.612	267.587	267.470	284.692	276.246	8192	-8191	8192	8192	254	
77359.633	1	1	0	0	50.7059	51.8902	50.34	1.78967	47.8039	27.8306	16.6621	67.3374	126.221	129.466	123.212	41.0048	110.635	84.8413	58.8317	165.514	97.400	287.929	97.404	308.143	279.776	278.645	257.532	273.367	8192	-8191	8192	8192	254	
77359.680	1	1	0	0	45.5974	53.6071	64.4407	4.79801	49.6182	27.0422	4.51656	81.5262	123.149	134.774	123.409	44.8558	116.394	87.3606	57.7933	177.962	99.756	277.017	95.119	304.775	274.275	271.942	264.107	269.269	8192	-8191	8192	8192	254	
77359.727	1	1	0	0	45.5549	55.657	53.1153	5.25867	46.1437	19.1776	12.0896	73.6436	124.721	132.409	125.284	42.5625	111.462	79.2933	56.7596	164.106	109.649	288.662	97.534	328.804	269.913	282.048	292.921	278.312	8192	-8191	8192	8192	254	
77359.773	1	1	0	0	56.9315	52.8114	53.3751	5.37625	46.8355	29.0723	11.1289	76.4068	122.197	133.62	117.832	44.1683	114.312	80.8558	53.1538	174.106	101.121	290.706	85.294	137.817	275.037	278.144	276.940	272.583	8192	-8191	8192	8192	254	
77359.828	1	1	0	0	54.9771	57.8717	53.7202	1.52457	42.074	25.7375	11.6505	84.1983	121.976	132.904	122.192	42.0625	117.591	82.8558	56.0625	177.072	92.931	293.767	97.270	127.163	274.479	253.848	272.992	268.325	8192	-8191	8192	8192	254	
77359.875	1	1	0	0	57.8458	56.3399	44.4107	2.20518	50.9559	22.5096	12.8562	69.5096	119.221	133.702	121.524	48.1394	113.572	74.0865	56.1923	170.183	89.622	283.968	102.265	183.796	282.119	279.502	282.551	269.710	8192	-8191	8192	8192	254	
77359.875	1	1	0	0	54.0388	48.5675	46.9856	7.34197	57.4275	20.3963	9.68017	70.4295	120.832	125.596	117.495	43.1346	114.553	82.1635	62.5433	174.611	96.993	292.644	94.732	322.446	263.029	272.739	315.667	272.855	8192	-8191	8192	8192	254	
77359.922	1	1	0	0	51.8728	55.2523	56.3882	8.60201	49.1647	29.3098	12.7162	84.7339	121.317	128.74	123.837	41.8125	116.519	88.2596	57.7837	174.457	90.713	281.793	100.634	154.765	261.948	274.009	264.055	274.761	8192	-8191	8192	8192	254	
77359.969	1	1	0	0	59.2998	57.9818	47.2467	1.34133	43.4101	28.404	13.7291	63.7432	124.966	131.452	119.837	43.601	109.106	83.4663	54.8221	175.082	94.333	292.151	104.932	54.255	270.911	273.887	285.887	271.581	8192	-8191	8192	8192	254	
77360.016	1	1	0	0	58.9068	48.7552	40.5211	5.13483	44.2908	17.1828	3.80604	71.1157	122.712	129.673	120.188	43.0096	106.716	86.6154	57.3558	171.538	94.106	284.856	80.965	192.309	280.770	273.332	189.246	276.091	8192	-8191	8192	8192	254	
77360.086	1	1	0	0	58.4604	54.5504	57.0491	7.88615	53.142	32.6425	8.91538	71.3733	119.889	126.481	121.25	40.9952	114.192	81.4423	58.5288	170.712	94.137	290.702	92.968	5.766	272.402	286.450	242.344	279.624	8192	-8191	8192	8192	254	
77360.141	1	1	0	0	57.4144	56.013	48.8085	6.25575	54.0195	23.9627	4.28936	77.3572	128.385	133.163	122.697	44.2933	114.077	78.1538	56.625	173.308	90.680	289.287	87.971	357.395	274.001	263.611	285.303	268.066	8192	-8191	8192	8192	254	
77360.188	1	1	0	0	59.9603	54.85	56.6029	0.941902	44.2009	30.5739	5.15127	74.0797	127.986	130.096	125.553	44.2788	108.38	80.3125	58.7548	173.865	105.931	285.737	91.384	51.485	277.407	296.080	295.191	272.044	8192	-8191	8192	8192	254	
77360.234	1	1	0	0	49.0128	58.5788	53.3092	3.75649	46.8723	19.1703	8.39383	75.0731	125.202	132.077	120.591	43.375	116.76	77.9856	55.8846	176.764	93.084	283.697	95.728	194.818	274.485	266.938	270.140	272.927	8192	-8191	8192	8192	254	
77360.281	1	1	0	0	53.0293	55.198	57.2376	6.55714	52.6845	26.0101	7.91464	76.9732	121.63	131.087	124.923	46.2596	117.702	82.8317	60.7885	175.505	97.249	284.343	99.852	75.811	268.409	276.423	293.012	269.852	8192	-8191	8192	8192	254	
77360.328	1	1	0	0	55.6444	48.4034	53.4941	6.09955	43.4757	20.7907	13.1078	67.2299	123.663	127.438	124.308	44.5337	108.74	84.1971	59.6298	170.601	104.417	286.353	91.781	148.052	275.255	274.401	281.279	271.214	8192	-8191	8192	8192	254	
77360.398	1	1	0	0	59.5826	52.2355	57.6512	4.28744	51.2285	33.2402	12.649	84.8814	125.476	123.582	126.952	44.3654	113.438	86.4663	59.4615	173.726	101.204	291.973	98.424	183.368	278.599	285.597	286.212	275.805	8192	-8191	8192	8192	254	
77360.453	1	1	0	0	66.503	49.9216	47.5756	4.99174	51.6388	28.4788	3.76368	67.8736	129.274	129.308	121.745	37.5192	113.572	86.1106	59.6538	171.457	104.588	284.430	97.417	326.972	279.394	277.914	256.727	268.571	8192	-8191	8192	8192	254	
77360.500	1	1	0	0	56.0198	53.76	54.8843	3.5106	46.2624	30.2546	5.94532	78.8836	125.683	129.288	121.226	43.7837	110	86.7212	54.6058	173.976	91.957	291.126	98.282	292.095	266.427	285.192	341.201	274.518	8192	-8191	8192	8192	254	
77360.547	1	1	0	0	61.4795	54.7978	50.9687	8.85705	53.6388	22.3158	6.62769	75.7644	120.75	132.481	122.663	42.9567	115.534	79.7019	58.2019	181.38	92.763	285.525	93.198	93.634	275.399	268.147	290.084	273.516	8192	-8191	8192	8192	254	
77360.594	1	1	0	0	51.8738	48.0922	43.7482	3.01974	46.9549	16.1489	11.3941	78.3264	119.014	125.053	124.745	40.9904	111.264	79.75	56.5577	179.322	98.110	284.689	92.494	255.037	265.513	280.196	272.861	268.888	8192	-8191	8192	8192	254	
77360.641	1	1	0	0	58.4619	61.273	45.6325	4.0434	47.9143	25.961	2.72465	75.6091	125.558	137.625	112.096	43.8413	112.841	80.3077	59.4279	173.538	99.488	283.185	90.062	117.155	280.382	281.686	355.629	267.140	8192	-8191	8192	8192	254	
77360.641	1	1	0	0	45.1169	57.0898	40.923	2.94458	42.4105	22.8357	9.37876	84.8661	116.971	132.529	114.231	45.9567	112.361	82.8029	53.0481	178.639	90.528	287.157	101.576	243.926	280.991	278.306	274.217	278.054	8192	-8191	8192	8192	254	
77360.688	1	1	0	0	53.5567	48.4567	55.5853	1.62093	50.7596	28.9905	8.83399	72.0018	124.019	126.774	126.726	43.6587	113.793	82.2933	59.5962	173.947	99.563	291.833	96.025	118.216	273.094	265.604	281.635	278.557	8192	-8191	8192	8192	254	
77360.766	1	1	8	0	57.743	62.4839	50.4208	2.83834	49.8316	26.443	9.19407	74.7655	124.519	129.514	117.524	41.7933	118.135	77.1298	62.1154	175.327	99.076	287.403	89.029	180.806	274.637	279.365	222.770	274.598	8192	-8191	8192	8192	254	
77360.812	1	1	0	0	54.6325	58.8632	53.5215	5.17404	54.6232	21.9144	5.86176	69.223	123.029	132.505	114.822	43.7644	110.519	80.476	60.5192	166.433	99.365	281.005	100.810	232.597	269.957	270.167	333.038	274.610	8192	-8191	8192	8192	254	
77360.859	1	1	0	0	58.0688	50.7924	45.035	5.42421	41.7331	22.2872	9.42979	79.234	125.192	128.481	117.957	43.9808	106.827	86.149	52.7548	172.385	92.069	286.785	86.480	143.811	279.336	271.972	262.224	269.560	8192	-8191	8192	8192	254	
77360.906	1	1	0	0	50.4502	48.5558	57.232	3.35175	57.9962	19.6825	9.44668	78.3001	125.351	128.351	122.01	41.7788	115.466	80.2933	53.7212	175.101	101.019	289.672	98.849	323.887	269.304	274.620	273.058	270.474	8192	-8191	8192	8192	254	
77360.953	1	1	0	0	60.9917	58.0174	56.5152	3.51796	53.5738	13.2865	7.44196	66.7622	131.928	132.51	122.096	44.0048	118.885	85.2692	56.1923	169.514	95.260	285.068	106.557	339.160	267.199	255.040	254.093	272.575	8192	-8191	8192	8192	254	
77361.000	1	1	0	0	52.0449	49.2642	48.511	4.55977	50.6864	27.4739	10.0123	79.8983	126.942	123.639	124.144	43.0913	115.183	80.5048	52.0096	175.341	102.401	274.567	95.128	52.753	275.259	267.912	276.699	262.259	8192	-8191	8192	8192	254	
77361.047	1	1	0	0	47.2911	54.2186	46.8976	3.78265	43.0594	24.9485	2.66582	82.6395	121.582	128.495	111.976	44.101	107.995	82.6779	54.2067	172.678	90.383	285.945	98.461	194.469	266.142	256.006	326.395	271.407	8192	-8191	8192	8192	254	
77361.102	1	1	0	0	60.1067	57.9161	57.0044	0.899107	49.0288	25.4756	9.56848	73.8654	126.111	131.096	125.75	44.2356	117.606	83.7212	56.2981	168.942	92.131	287.418	95.029	24.149	275.307	280.663	312.519	272.376	8192	-8191	8192	8192	254	
77361.172	1	1	0	0	52.7286	57.7308	43.3335	3.20685	48.3133	13.992	8.38961	72.0961	121.596	129.755	118.635	46.0913	113.63	82.0288	60.4856	169.014	101.006	277.986	100.817	40.849	276.769	266.868	228.747	271.667	8192	-8191	8192	8192	254	
77361.219	1	1	0	0	61.3248	47.8856	56.387	0.958226	58.2208	20.7105	3.58721	66.9092	125.038	127.279	122.524	44.899	116.428	82.3125	57.7067	168.197	95.744	297.837	101.076	62.165	280.728	285.879	270.015	276.529	8192	-8191	8192	8192	254	
77361.266	1	1	0	0	60.1667	45.534	50.9464	3.48699	49.1282	29.5348	7.41491	76.624	128.178	128.476	121.837	43.2356	116.471	79.4856	53.6731	170.269	96.557	288.863	91.945	13.083	269.342	261.652	279.200	273.599	8192	-8191	8192	8192	254	
77361.312	1	1	0	0	53.4616	46.5874	49.8892	2.53382	45.4401	26.332	15.657	71.0224	122.697	127.183	124.231	42.6827	109.62	83.7885	58.9279	171.452	101.400	282.288	94.290	105.024	259.415	291.725	265.351	276.483	8192	-8191	8192	8192	254	
#DATA ENDS
