BOXY.EXE: ISS Imagent Data Acquisition Program Version 0.82
Ascii Record File

#ACQ INFORMATION
1  Detector Channels 
8  External MUX Channels 
4  Auxiliary Analog Channels 
5000  Waveform (CCF) Frequency (Hz)
4  Waveforms Skipped 
26  Waveforms Averaged 
1  Cycles Averaged 
8  Acquisitions per Waveform 
1  Auxiliary Digital Channels 

#Data Update Rate
20.8333  Update Rate (Hz) 
FALSE -- Use Phase Reference
FALSE -- Use Continuous Phase Reference
FALSE -- Use Intensity Reference
FALSE -- Use Continuous Intensity Reference

#FILE INFORMATION
TRUE -- External MUX Channel results are PARSED.
FALSE -- AC DC and Phase are NOT grouped.
TRUE -- Companion Program Settings File CREATED.
FALSE -- AC data not excluded
FALSE -- DC data not excluded
FALSE -- Phase data not excluded
FALSE -- Auxillary Chn. data not excluded
Tab delimiters

#CALIBRATION STATE
FALSE -- Waveform Calibration Values NOT applied.

#WAVELENGTH DATA
Wavelength Index	Wavelength	Comp1 ExtCoef	Comp2 ExtCoef	Comp3 ExtCoef	Comp4 ExtCoef	BackGround	Weight	

1	6.600e+02	1.486e+00	3.844e+00	1.000e+00	1.000e+00	1.890e-02	1.000e+00	
2	6.900e+02	2.315e+00	1.792e+00	1.000e+00	1.000e+00	2.180e-02	1.000e+00	
3	7.500e+02	1.000e+00	1.000e+00	1.000e+00	1.000e+00	3.010e-03	1.000e+00	
4	7.750e+02	1.000e+00	1.000e+00	1.000e+00	1.000e+00	3.240e-03	1.000e+00	
5	7.850e+02	1.000e+00	1.000e+00	1.000e+00	1.000e+00	1.660e-02	1.000e+00	
6	8.000e+02	1.000e+00	1.000e+00	1.000e+00	1.000e+00	1.480e-02	1.000e+00	
7	8.250e+02	1.000e+00	1.000e+00	1.000e+00	1.000e+00	1.620e-02	1.000e+00	
8	8.300e+02	1.000e+00	1.000e+00	1.000e+00	1.000e+00	2.620e-02	1.000e+00	


#AUX CALIBRATION VALUES
Val Type	aux-1	aux-2	aux-3	aux-4	

Term	0.0000e+00	0.0000e+00	0.0000e+00	0.0000e+00	
Factor	1.0000e+00	1.0000e+00	1.0000e+00	1.0000e+00	


#WF CALIBRATION VALUES
A = Detector Channel
Val Type	A-AC1	A-AC2	A-AC3	A-AC4	A-AC5	A-AC6	A-AC7	A-AC8	A-DC1	A-DC2	A-DC3	A-DC4	A-DC5	A-DC6	A-DC7	A-DC8	A-Ph1	A-Ph2	A-Ph3	A-Ph4	A-Ph5	A-Ph6	A-Ph7	A-Ph8	

Term	0.00000e+00	0.00000e+00	0.00000e+00	0.00000e+00	0.00000e+00	0.00000e+00	0.00000e+00	0.00000e+00	0.00000e+00	0.00000e+00	0.00000e+00	0.00000e+00	0.00000e+00	0.00000e+00	0.00000e+00	0.00000e+00	-1.05892e+02	-9.99249e+01	-2.86485e+02	-2.62799e+02	-2.45797e+02	-2.48632e+02	-7.72400e+01	-7.86612e+01	
Factor	3.48934e-02	2.88771e-02	2.23541e-02	4.58344e-02	3.11822e-02	3.92311e-02	3.80806e-02	2.80088e-02	4.70955e+01	8.07534e+01	3.66973e+01	1.04434e+02	6.45565e+01	3.94082e+01	9.13796e+01	5.49806e+01	X	X	X	X	X	X	X	X	



#DISTANCE SETTINGS
A = Detector Channel
A-1	A-2	A-3	A-4	A-5	A-6	A-7	A-8	

1.5000e+00	1.5000e+00	1.5000e+00	1.5000e+00	1.5000e+00	1.5000e+00	1.5000e+00	1.5000e+00	



#ADDITIONAL SIGNAL INFORMATION
A = Detector Channel
Info. Type	A-1	A-2	A-3	A-4	A-5	A-6	A-7	A-8	

cal. block. ind.	1	1	1	1	1	1	1	1	
wavelength ind.	0	1	2	3	4	5	6	7	
weight	1.0000e+00	1.0000e+00	1.0000e+00	1.0000e+00	1.0000e+00	1.0000e+00	1.0000e+00	1.0000e+00	


#CALIBRATION BLOCK OPTICAL PROPS
Calib. Block Num.	WaveLen Index	Absorption	Scattering	

1	1	1.080e-01	9.000e+00	
1	2	1.300e-01	1.070e+01	
1	3	1.130e-01	9.400e+00	
1	4	1.210e-01	1.000e+01	
1	5	1.080e-01	9.000e+00	
1	6	1.300e-01	1.070e+01	
1	7	1.150e-01	9.600e+00	
1	8	1.330e-01	1.090e+01	

Calib. Block Num.	WaveLen Index	Absorption	Scattering	

2	1	1.120e-01	4.400e+00	
2	2	1.200e-01	5.700e+00	
2	3	1.140e-01	4.600e+00	
2	4	1.160e-01	5.100e+00	
2	5	1.120e-01	4.400e+00	
2	6	1.200e-01	5.700e+00	
2	7	1.150e-01	4.800e+00	
2	8	1.210e-01	6.000e+00	

Calib. Block Num.	WaveLen Index	Absorption	Scattering	

3	1	9.300e-02	8.700e+00	
3	2	1.010e-01	1.040e+01	
3	3	9.500e-02	9.000e+00	
3	4	9.700e-02	9.600e+00	
3	5	9.300e-02	8.700e+00	
3	6	1.010e-01	1.040e+01	
3	7	9.600e-02	9.300e+00	
3	8	1.030e-01	1.080e+01	

Calib. Block Num.	WaveLen Index	Absorption	Scattering	

4	1	1.000e-01	1.000e+01	
4	2	1.000e-01	1.000e+01	
4	3	1.000e-01	1.000e+01	
4	4	1.000e-01	1.000e+01	
4	5	1.000e-01	1.000e+01	
4	6	1.000e-01	1.000e+01	
4	7	1.000e-01	1.000e+01	
4	8	1.000e-01	1.000e+01	



#DATA BEGINS
time	group	step	mark	flag	A-AC1	A-AC2	A-AC3	A-AC4	A-AC5	A-AC6	A-AC7	A-AC8	A-DC1	A-DC2	A-DC3	A-DC4	A-DC5	A-DC6	A-DC7	A-DC8	A-Ph1	A-Ph2	A-Ph3	A-Ph4	A-Ph5	A-Ph6	A-Ph7	A-Ph8	aux-1	aux-2	aux-3	aux-4	digaux	

77040.820	1	1	0	768	3693.56	12.0597	3475.04	1637.08	514.947	4968.92	2.33968	5.1092	5565.78	68.1202	5073.67	2612.32	930.207	8711.51	57.1731	60.601	18.458	256.623	192.738	196.364	197.360	193.016	228.275	246.501	8192	-8191	8192	8192	254	
77040.867	1	1	0	0	4630.57	4917.04	4188.19	3.85907	3499.42	1640.55	492.357	5026.05	6804.34	7846.51	6397.04	67.2308	5069	2603.89	914.611	8732.75	18.258	205.692	17.208	200.051	193.191	196.842	199.436	192.779	8192	-8191	8192	8192	254	
77040.938	1	1	0	0	4549.6	4895.75	4287.56	2.59549	3512.81	1646.97	518.354	5002.92	6776.45	7887.85	6497.62	62.3365	5084.58	2629.99	926.106	8619.76	17.507	205.944	16.961	158.810	193.171	196.672	198.479	192.507	8192	-8191	8192	8192	254	
77040.992	1	1	0	0	4641.65	4900.14	4295.09	4.21341	3528.94	1653.54	496.814	5029.24	6799.28	7871.33	6490.5	67.4663	5079.31	2609.32	918.702	8631.78	17.916	206.025	16.711	123.201	192.941	197.048	200.745	193.467	8192	-8191	8192	8192	254	
77041.039	1	1	0	0	4572.6	4867.27	4302.53	6.86362	3480.49	1624.33	495.148	4980.36	6793.97	7834.17	6569.69	65.5913	5058	2598	912.245	8640.86	17.794	205.768	16.012	180.854	192.615	197.873	197.740	193.323	8192	-8191	8192	8192	254	
77041.086	1	1	0	0	4625.4	4896.38	4295.65	5.24527	3491.96	1613.48	528.405	4932.95	6824.69	7877.26	6583.76	66.5048	5036.96	2586.28	921.788	8589.96	17.921	206.037	16.608	221.787	193.428	197.953	198.266	193.042	8192	-8191	8192	8192	254	
77041.133	1	1	0	0	4594.62	4963.26	4309.87	10.8532	3497.41	1637.77	529.347	4977.02	6802.25	7912.9	6593.48	66.5385	5075.05	2612.29	923.058	8596.72	17.866	205.721	16.390	184.527	192.491	195.364	199.101	192.982	8192	-8191	8192	8192	254	
77041.180	1	1	0	0	4589.62	4804.3	4275.81	9.63557	3544.15	1593.25	517.548	4977.28	6785.34	7844.62	6569.29	73.7019	5074.32	2580.96	916.779	8642.28	17.368	205.961	16.085	222.209	193.272	196.285	197.516	193.986	8192	-8191	8192	8192	254	
77041.227	1	1	0	0	4523.65	4791.55	4290.95	10.1366	3513.4	1633.48	544.634	4956.4	6741.39	7833.09	6572.89	71.8846	5068.91	2628.97	915.832	8645.03	17.608	206.294	15.807	189.412	193.390	198.826	200.041	193.163	8192	-8191	8192	8192	254	
77041.273	1	1	0	0	4619.93	4852.94	4331.71	10.1627	3483.64	1647.56	524.159	4932.86	6804.36	7854.12	6605.64	71.0529	5050.2	2616.12	917.577	8624.7	17.962	206.864	16.256	216.603	193.586	197.723	200.083	192.826	8192	-8191	8192	8192	254	
77041.328	1	1	0	0	4601.04	4810.06	4352	1.19623	3469.06	1657.54	535.028	4997.26	6805.8	7809.02	6620.54	70.6587	5079.98	2607.98	922.365	8635.49	17.219	205.239	16.436	201.560	192.280	195.632	195.975	193.418	8192	-8191	8192	8192	254	
77041.375	1	1	0	0	4570.47	4871.14	4348.85	5.08733	3512.76	1671.28	497.884	4997.92	6771.2	7890.68	6617.49	63.7356	5082.01	2644.75	913.048	8629.62	17.318	205.534	16.025	200.623	192.709	196.717	201.014	192.236	8192	-8191	8192	8192	254	
77041.445	1	1	1	0	4526.26	4787.17	4333.83	8.43028	3498.16	1615.48	495.408	4995.14	6724.25	7816.65	6570.79	69.6683	5057.83	2596.16	917.601	8666.19	17.727	206.068	16.812	234.572	192.933	197.506	197.299	192.773	8192	-8191	8192	8192	254	
77041.492	1	1	0	0	4694.83	4952.64	4443.62	5.02035	3514.18	1620.28	514.909	4955.43	6859.89	7886.51	6666.37	70.7596	5110.09	2598.17	914.514	8607.38	17.672	206.040	16.115	58.224	193.081	197.176	198.786	193.033	8192	-8191	8192	8192	254	
77041.539	1	1	0	0	4513.03	4856.03	4342.21	12.4323	3440.3	1660.28	530.81	4983.94	6729.28	7845.27	6640.12	69.4471	5039.29	2617.91	933.712	8670.97	17.842	205.785	15.585	232.057	192.942	197.395	199.129	192.836	8192	-8191	8192	8192	254	
77041.594	1	1	0	0	4568.43	4829.75	4331.03	9.19529	3463.32	1634.99	517.334	4995.56	6799.18	7860.45	6641.11	74.8942	5027.79	2611.18	943.538	8621.08	18.694	205.945	15.989	182.933	192.299	196.515	199.942	192.487	8192	-8191	8192	8192	254	
77041.586	1	1	0	0	4609.42	4883.71	4405.63	1.51394	3453.66	1672.13	506.493	5030.41	6817.7	7895.05	6637.63	78.4904	5044.29	2635.91	903.971	8703.61	17.317	205.788	15.693	299.710	193.188	196.722	200.550	193.462	8192	-8191	8192	8192	254	
77041.641	1	1	0	0	4628.09	4814.23	4363.3	4.24041	3497.48	1603.53	509.583	4979.21	6770.66	7835.39	6636.3	71.1202	5060.56	2589.03	910.755	8648.76	17.445	205.775	16.186	231.770	192.940	196.057	200.283	192.254	8192	-8191	8192	8192	254	
77041.711	1	1	0	0	4606.69	4911.11	4341.43	8.10369	3527.94	1621.72	519.282	4896.52	6809.92	7895.12	6621.54	68.274	5067.11	2594.54	914.577	8603.54	18.329	205.917	15.775	196.930	193.285	195.581	197.755	193.580	8192	-8191	8192	8192	254	
77041.758	1	1	0	0	4584.33	4880.9	4287.48	2.19687	3507.35	1647.7	518.247	4950.12	6782.92	7839.36	6614.58	74.0096	5096.67	2634.92	920.043	8635.31	17.765	205.923	15.832	94.345	193.241	196.554	199.220	193.296	8192	-8191	8192	8192	254	
77041.805	1	1	0	0	4558.72	4917.53	4380.05	8.86539	3520.51	1639.93	515.182	4992.45	6753.82	7868.26	6640.05	72.0913	5090.97	2615.65	914.433	8614.51	17.558	205.662	16.622	143.952	192.489	197.694	198.844	192.834	8192	-8191	8192	8192	254	
77041.852	1	1	0	0	4592.68	4828.31	4338.44	10.2734	3491.92	1647.07	513.916	4932.88	6778.63	7839.85	6617.99	71.2596	5075.43	2599.69	925.548	8642.68	17.388	206.024	16.301	228.104	192.855	196.760	202.198	192.740	8192	-8191	8192	8192	254	
77041.898	1	1	0	0	4607.98	4834.46	4343.3	6.20775	3468.09	1613.27	516.265	4957.28	6820.43	7831.19	6604.34	70.5385	5102.61	2602.72	930.803	8619.73	17.955	205.851	15.900	209.649	192.940	196.692	200.914	193.315	8192	-8191	8192	8192	254	
77041.953	1	1	0	0	4659.82	4796.95	4281.36	3.89626	3508.37	1701.98	496.324	5002.83	6825.65	7790.92	6600.64	80.226	5065.06	2645.46	902.856	8652.34	18.176	206.118	16.575	232.697	192.823	195.474	197.367	192.781	8192	-8191	8192	8192	254	
77042.000	1	1	0	0	4599.05	4888.63	4320.71	10.0766	3532.29	1641.15	493.182	4967.64	6765.45	7869.13	6626.02	75.7356	5116.14	2626.07	913.447	8662.52	17.645	205.716	16.373	210.905	192.752	197.448	202.653	193.061	8192	-8191	8192	8192	254	
77042.047	1	1	0	0	4579.89	4834.82	4433.12	4.60863	3505.7	1681.99	506.729	5024.24	6781.28	7824.08	6677.69	79.75	5086.46	2651.15	924.894	8676.24	17.998	205.864	15.754	235.536	193.270	196.949	199.799	193.126	8192	-8191	8192	8192	254	
77042.117	1	1	0	0	4631.03	4878.93	4404.77	0.522906	3507.46	1657.3	520.801	5017.35	6816.87	7894.77	6625.69	78.625	5119.57	2637.42	920.625	8689.55	17.753	205.719	16.363	7.679	193.396	195.364	201.880	192.992	8192	-8191	8192	8192	254	
77042.164	1	1	0	0	4598.67	4857.2	4347.95	15.8393	3465.24	1619.55	505.609	4951.98	6799	7863.25	6636.58	78.2163	5045.33	2611.78	919.173	8638.64	17.627	206.110	16.484	207.584	193.256	195.723	198.703	192.905	8192	-8191	8192	8192	254	
77042.211	1	1	0	0	4587.74	4834.7	4394.11	11.195	3464.22	1646.56	485.745	4947.87	6789.62	7848.45	6669.25	78.2115	5062.5	2634.25	908.577	8594.87	17.792	205.786	16.788	221.332	192.168	196.859	198.520	192.406	8192	-8191	8192	8192	254	
77042.258	1	1	0	0	4590.98	4918.67	4300.96	1.11668	3484.94	1616.16	531.099	4991.38	6816.59	7900.79	6626.54	83.9952	5086.84	2586.91	939.644	8616.47	17.504	205.987	17.005	63.937	193.080	196.589	200.266	192.203	8192	-8191	8192	8192	254	
77042.312	1	1	0	0	4596.66	4795.87	4414.85	18.6865	3538.79	1701.41	536.623	4928.53	6784.3	7827.75	6641.92	86.3558	5104.72	2660.48	943.293	8621.61	17.487	205.974	16.301	210.338	193.138	194.420	200.108	193.714	8192	-8191	8192	8192	254	
77042.359	1	1	0	0	4594.86	4904.49	4361.29	10.7102	3469.79	1645.24	515.012	4957.99	6786.11	7927.43	6627.26	82.3894	5083.05	2624.35	945.038	8610.28	18.434	204.831	15.171	143.683	192.731	195.858	199.621	193.334	8192	-8191	8192	8192	254	
77042.359	1	1	0	0	4591.1	4915.16	4376.14	20.1628	3491.88	1583.72	538.408	4998.14	6794.1	7937.12	6657.07	91.1346	5097.58	2611.87	939.212	8652.3	17.837	205.286	16.070	217.817	193.229	198.148	199.221	192.520	8192	-8191	8192	8192	254	
77042.406	1	1	0	0	4656.98	4879.81	4348.23	12.1805	3463.56	1669.33	517.9	4952.85	6879.15	7859.35	6646.51	85.0385	5083.38	2618.87	940.154	8645.39	17.852	207.242	16.011	268.582	192.917	197.089	202.316	192.790	8192	-8191	8192	8192	254	
77042.453	1	1	0	0	4607.27	4920.01	4370.82	4.32383	3487.59	1608.83	506.701	4965.38	6812.49	7883.33	6661.76	88.8125	5085.3	2603.63	920.303	8658.46	17.643	205.608	16.202	161.527	193.564	196.711	199.971	193.604	8192	-8191	8192	8192	254	
77042.500	1	1	0	0	4644.15	4771.82	4351.37	11.721	3485.89	1628.71	491.626	4893.23	6845.58	7806.52	6670.84	88.1346	5086.79	2614.92	936.817	8634.72	17.299	205.575	16.647	227.122	192.661	195.614	199.262	192.478	8192	-8191	8192	8192	254	
77042.570	1	1	0	0	4709.01	4906.82	4371.74	6.48003	3491.12	1657.91	506.688	5023.1	6865.76	7919.18	6699.04	88.774	5059.42	2634.25	934.966	8684.04	18.087	205.258	16.269	219.531	193.467	195.827	197.456	193.223	8192	-8191	8192	8192	254	
77042.617	1	1	0	0	4550.55	4850.42	4361.9	11.0699	3501.82	1659.32	506.168	5006.49	6811.25	7897.73	6658.69	86.5962	5082.13	2639.14	927.062	8693.29	17.151	205.845	16.148	135.395	191.554	196.492	197.661	192.347	8192	-8191	8192	8192	254	
77042.672	1	1	0	0	4613.37	4828.35	4410.96	5.62865	3590.65	1647.83	517.688	4988.08	6831.85	7792.47	6636.73	79.0673	5130.38	2620.81	927.471	8626.33	18.001	205.689	16.299	243.000	193.050	197.410	200.273	193.452	8192	-8191	8192	8192	254	
77042.719	1	1	0	0	4624.4	4898.48	4315.88	5.76724	3461.32	1650.62	499.371	5024.95	6790.33	7904.26	6653.7	86.3846	5106.2	2647.36	929.49	8723.1	17.740	205.701	16.276	195.999	193.437	197.263	199.008	192.750	8192	-8191	8192	8192	254	
77042.766	1	1	0	0	4652.35	4813.16	4414.4	14.4045	3525.5	1602.85	528.186	4982.97	6839.8	7867.25	6688.94	86.1635	5092.59	2623.68	940.707	8661.98	17.149	206.369	17.101	178.597	193.525	196.376	199.331	193.625	8192	-8191	8192	8192	254	
77042.812	1	1	0	0	4618.35	4738.31	4376.9	7.82517	3498.49	1637.94	511.088	4963.29	6830.9	7788.01	6668.93	94.1779	5087.34	2643.03	933.356	8667.59	18.007	206.173	16.250	190.768	193.528	196.352	198.653	193.513	8192	-8191	8192	8192	254	
77042.859	1	1	0	0	4634.04	4832.52	4348.81	5.86584	3440.79	1595.98	513.68	4978.96	6815.86	7880.34	6651.88	87.7019	5038.93	2594.41	957.111	8683.05	18.168	205.714	15.830	212.400	192.689	196.965	201.250	193.582	8192	-8191	8192	8192	254	
77042.906	1	1	0	0	4722.46	4855.61	4329.99	4.11938	3511.83	1685.14	525.163	4925.17	6887.4	7897.77	6628.64	89.9087	5106.34	2668.81	938.447	8605.77	17.968	206.370	16.305	203.662	193.753	196.713	198.822	192.807	8192	-8191	8192	8192	254	
77042.984	1	1	0	0	4611.21	4809.41	4374.01	4.07653	3538.42	1666.83	519.387	4962.12	6837.4	7838.23	6660.74	89.5096	5121.23	2668.12	930.236	8640.26	17.136	206.423	16.198	168.959	193.155	197.060	201.070	193.051	8192	-8191	8192	8192	254	
77043.031	1	1	0	0	4636.84	4799.73	4407.03	3.44789	3436.24	1649.78	516.199	5009.42	6835.11	7820.58	6694.27	95.2212	5074.16	2660.78	934.221	8693.25	17.313	205.590	15.926	239.045	193.283	196.254	201.849	192.363	8192	-8191	8192	8192	254	
77043.078	1	1	0	0	4607.32	4929.01	4355.11	3.97229	3462.93	1650.78	525	5040.61	6849.12	7949.7	6659.29	94.2067	5101.81	2638.41	951.077	8663.41	17.246	206.339	17.492	227.685	193.546	197.375	199.628	192.793	8192	-8191	8192	8192	254	
77043.125	1	1	0	0	4591.93	4859.46	4336.57	7.45718	3486.47	1611.13	522.778	5043.15	6859.42	7871.08	6618.94	94.6971	5092.17	2635.19	948.976	8745	17.315	205.400	15.740	209.921	192.637	196.672	199.329	193.496	8192	-8191	8192	8192	254	
77043.125	1	1	0	0	4623.28	4834.54	4354.62	14.0504	3512.05	1656.94	497.787	4994.97	6824.82	7854.03	6633.38	97.5673	5092.63	2661.58	930.721	8660.15	18.272	206.021	15.894	207.567	193.541	197.804	199.042	193.589	8192	-8191	8192	8192	254	
77043.172	1	1	0	0	4559.48	4897.22	4341.92	9.61304	3487.76	1673.48	517.915	5007.88	6803.87	7908.5	6667.94	104.192	5105.15	2643.66	952.188	8700.29	17.638	206.153	16.490	240.998	192.421	198.023	199.394	193.063	8192	-8191	8192	8192	254	
77043.219	1	1	0	0	4574.64	4910.22	4242	2.23851	3464.54	1634.07	511.04	4967.15	6801.91	7920.8	6610.19	104.019	5123.19	2632.33	934.298	8622.41	17.622	206.091	16.583	30.367	192.468	196.902	199.501	193.482	8192	-8191	8192	8192	254	
77043.266	1	1	0	0	4565.74	4838.79	4318.9	9.52904	3527.69	1650.49	526.706	4935.26	6820.6	7875.81	6617.16	98.4856	5108.52	2653.62	948.188	8638.05	18.045	206.396	16.261	181.045	192.718	197.143	197.335	193.881	8192	-8191	8192	8192	254	
77043.344	1	1	0	0	4619.81	4900.83	4355.24	6.96772	3484.9	1613.75	494.817	5033.58	6837.66	7949.7	6650.39	79.4231	5045.2	2603.49	901.264	8658.59	17.359	205.821	16.425	201.342	192.894	196.725	199.565	193.201	8192	-8191	8192	8192	254	
77043.391	1	1	0	0	4587.73	4808.26	4425.38	4.15059	3451.41	1650.48	474.622	4962.74	6770.03	7813.17	6674.36	60.9087	5073.61	2592	886.125	8576.65	17.691	205.737	15.771	336.031	193.153	197.250	200.410	193.661	8192	-8191	8192	8192	254	
77043.438	1	1	0	0	4546.96	4856.27	4328.54	4.33253	3480.88	1660.06	496.282	4962.3	6763.44	7818.7	6575.07	62.2692	5059	2602.62	893.558	8609.36	17.383	206.048	16.480	252.666	193.615	196.093	198.282	192.884	8192	-8191	8192	8192	254	
77043.484	1	1	0	0	4660.85	4803.31	4358.94	6.11778	3581.64	1646.08	509.291	4945.21	6852.89	7764.4	6623.57	61.976	5115.29	2614.65	914.264	8572.29	17.689	206.779	16.288	230.407	193.018	196.004	199.755	193.034	8192	-8191	8192	8192	254	
77043.531	1	1	0	0	4568.42	4752.4	4363.97	2.98188	3439.33	1631.03	514.559	4901.31	6780.7	7775.46	6653.86	57.8846	5039.88	2581.61	891.909	8572.82	17.500	206.315	15.867	155.761	193.074	195.529	200.107	194.094	8192	-8191	8192	8192	254	
77043.578	1	1	0	0	4583.29	4830.66	4373.63	2.63938	3526.82	1623.25	498.117	5050.71	6768.89	7867.36	6624.92	57.726	5107.61	2614.8	881.635	8641.91	17.837	205.151	15.817	227.819	193.421	196.824	203.251	193.208	8192	-8191	8192	8192	254	
77043.656	1	1	0	0	4587.93	4916.59	4405.33	10.0172	3451.88	1592.19	525.761	5023.18	6753.99	7849.45	6633.37	54.2212	5024.59	2572.55	908.841	8644.69	17.149	206.516	16.329	210.324	193.418	197.257	199.840	192.963	8192	-8191	8192	8192	254	
77043.703	1	1	0	0	4614.63	4792.11	4400.26	7.5246	3458.23	1656.92	512.901	4920.2	6815.07	7813.25	6647.65	57.3654	5049.92	2591.56	906.683	8647.56	17.715	206.602	16.107	169.163	192.794	197.310	196.996	192.643	8192	-8191	8192	8192	254	
77043.750	1	1	0	0	4600.01	4893.17	4356.36	9.93962	3537.02	1648.04	496.689	5002.5	6762.61	7847.29	6675.78	55.8029	5103.08	2611.27	895.26	8651.32	16.850	205.552	17.273	200.568	192.801	197.163	200.460	193.228	8192	-8191	8192	8192	254	
77043.797	1	1	0	0	4601.93	4867.72	4413.93	3.59698	3516.58	1675.02	502.738	4916.07	6802.58	7856.27	6679.02	56.9279	5039.96	2621.58	896.75	8598.17	18.334	206.508	16.147	194.119	192.997	196.044	200.593	192.917	8192	-8191	8192	8192	254	
77043.844	1	1	0	0	4604.55	4835.28	4337.88	5.48676	3424.76	1640.2	510.451	4964.91	6761.13	7848.22	6611.51	56.9663	5000.03	2611.6	889.553	8598.46	17.602	206.333	17.028	220.023	192.284	197.241	198.847	193.640	8192	-8191	8192	8192	254	
77043.891	1	1	0	0	4593.67	4838.4	4375.78	5.60102	3490.73	1614.41	517.193	4906.23	6809.89	7820.44	6631.9	55.1538	5041.91	2593.56	911.312	8546.98	18.111	205.829	15.992	218.110	194.098	195.926	198.860	193.715	8192	-8191	8192	8192	254	
77043.891	1	1	0	0	4564.81	4869.04	4397.23	9.7882	3486.55	1668.54	518.291	4935.03	6778.4	7845.8	6645.44	58.0337	5059.13	2616.36	908.245	8600.69	18.367	206.307	15.644	199.722	192.175	196.015	198.483	193.666	8192	-8191	8192	8192	254	
77043.945	1	1	0	0	4591.96	4807.62	4292.68	4.24089	3473.36	1630.17	513.536	4956.42	6762.74	7809.1	6553.94	57.601	5049.83	2577.52	888.611	8594.31	17.773	205.659	16.067	237.795	192.533	196.022	199.950	192.761	8192	-8191	8192	8192	254	
77044.016	1	1	0	0	4637.78	4819.51	4334.29	1.60427	3497.76	1657.53	512.989	4992.99	6784.05	7806.07	6597.15	61.5288	5048.16	2607	905.38	8625.53	17.470	206.111	15.701	203.169	192.668	196.286	201.624	192.875	8192	-8191	8192	8192	254	
77044.062	1	1	0	0	4575.53	4817.32	4399.45	5.10077	3519.49	1603.25	519.159	4943.88	6804.35	7791.65	6643.94	60.8606	5080.98	2572.65	908.793	8581.3	17.835	205.683	16.272	252.440	192.936	195.516	200.789	192.310	8192	-8191	8192	8192	254	
77044.109	1	1	0	0	4692.28	4844.46	4329.81	3.13595	3485.91	1635.55	513.221	4951.96	6842.37	7870.89	6589.17	56.851	5068.3	2605.99	915.976	8623.62	18.235	205.934	16.425	278.606	192.775	195.933	200.964	193.299	8192	-8191	8192	8192	254	
77044.156	1	1	0	0	4536.35	4893.66	4307.61	7.77598	3514.36	1637.68	495.631	4946.78	6778.6	7854.08	6625.62	63.899	5064.38	2584.93	900.058	8569.19	18.173	206.028	16.094	218.202	193.071	198.085	197.512	193.089	8192	-8191	8192	8192	254	
77044.203	1	1	0	0	4599.4	4840.35	4390.61	7.51177	3489.19	1617.31	509.01	4964.33	6803.17	7828.06	6641.49	56.6154	5070	2600.45	892.909	8627.02	17.416	206.469	16.368	242.969	192.978	197.406	199.342	193.117	8192	-8191	8192	8192	254	
77044.250	1	1	0	0	4579.04	4826.62	4321.82	4.49551	3505.85	1609.63	525.715	5005.07	6798.8	7832.63	6576.59	61.101	5059.89	2576.79	911.236	8672.73	17.899	205.592	15.947	39.672	192.058	196.913	199.170	193.776	8192	-8191	8192	8192	254	
77044.305	1	1	0	0	4657.12	4935.6	4321.36	17.8196	3423.82	1640.95	516.244	4931.04	6840.93	7903.3	6652.33	62.851	5026.27	2617.98	893.255	8623.99	18.106	206.326	16.429	216.603	192.641	196.117	200.170	192.989	8192	-8191	8192	8192	254	
77044.352	1	1	0	0	4587.27	4897.07	4371.52	6.67597	3503.18	1604.83	504.695	5048.96	6785.02	7854.89	6658.24	59.3413	5051.76	2590.62	895.63	8635.61	17.387	205.963	16.197	242.453	193.395	195.515	202.737	193.452	8192	-8191	8192	8192	254	
77044.398	1	1	0	0	4602.17	4857.45	4341.73	6.97859	3512.67	1609.42	521.119	4910.85	6737.12	7824.49	6578.57	62.1779	5093.1	2583.56	930.644	8631.66	17.819	206.103	16.416	215.767	193.774	196.703	198.282	192.665	8192	-8191	8192	8192	254	
77044.445	1	1	0	0	4576.88	4871.23	4338.9	5.39287	3459.42	1639.96	495.642	4992.34	6768.87	7884.51	6620.59	64.2067	5067.07	2593.22	910.413	8670.45	17.424	206.259	16.834	275.534	193.157	196.475	202.927	192.785	8192	-8191	8192	8192	254	
77044.516	1	1	0	0	4594.3	4831.79	4383.48	7.86728	3471.59	1635.53	511.603	4904.66	6778.69	7822.15	6684.36	62.25	5055.98	2596.45	915.707	8623.37	18.105	206.065	16.822	194.087	193.157	197.755	198.419	193.379	8192	-8191	8192	8192	254	
77044.562	1	1	0	0	4624.47	4862.62	4410.24	9.98575	3481.05	1642.18	485.623	4929.85	6812.32	7868.84	6617.78	68.476	5087.53	2605.57	891.111	8565.25	17.619	206.059	16.153	208.184	192.817	197.060	201.874	192.501	8192	-8191	8192	8192	254	
77044.617	1	1	2	0	4496.64	4904.66	4352.28	2.97243	3430.79	1695.9	499.984	4977.8	6721.34	7874.95	6630.82	68.0577	5017.49	2649.9	915.755	8619.61	18.462	205.803	17.094	170.329	192.616	195.985	200.915	192.730	8192	-8191	8192	8192	254	
77044.664	1	1	0	0	4600.58	4788.88	4291.43	14.1515	3511.11	1619.57	486.717	4999.93	6796.98	7810.99	6613	77.3606	5080.17	2616.71	908.471	8682.91	17.266	205.618	16.205	201.747	193.342	196.510	201.349	193.118	8192	-8191	8192	8192	254	
77044.664	1	1	0	0	4607.78	4821.51	4341.85	7.753	3511.3	1663.83	505.439	4925.86	6782.11	7852.13	6626.25	89.2212	5110.67	2636.03	949.428	8605.52	17.246	206.366	15.711	313.421	193.039	197.502	201.965	193.437	8192	-8191	8192	8192	254	
77044.711	1	1	0	0	4605.44	4742.39	4329.91	11.9021	3507.61	1662.07	518.619	5002.97	6792.32	7825.25	6639.74	95.4663	5102.72	2655.78	960.135	8640.51	17.950	205.083	15.948	206.387	193.150	195.636	201.225	193.098	8192	-8191	8192	8192	254	
77044.758	1	1	0	0	4592.82	4833.06	4380.36	14.36	3501.86	1666.77	508.749	5098.77	6829.97	7840.24	6686.57	107.111	5105.04	2630.85	952.293	8744.4	17.382	206.503	16.591	167.134	193.910	196.288	203.370	192.834	8192	-8191	8192	8192	254	
77044.805	1	1	0	0	4672.46	4841.84	4364.8	11.322	3547.12	1653.02	509.576	4934.86	6856.2	7891.48	6686.75	111.736	5171.12	2654.7	959.822	8613.92	17.017	206.385	16.432	225.623	193.806	196.297	198.793	192.118	8192	-8191	8192	8192	254	
77044.875	1	1	0	0	4512.63	4830.78	4328.3	14.0333	3439.42	1654.6	492.048	4938.66	6796.57	7908.56	6657.54	115.837	5091.22	2652.91	937.332	8635.03	18.181	206.176	16.317	274.459	192.556	195.527	198.930	193.318	8192	-8191	8192	8192	254	
77044.922	1	1	0	0	4645.35	4829.06	4330.86	8.25455	3476.17	1605.57	506.458	4935.93	6858.59	7893.35	6655.59	111.087	5095.22	2630.41	966.812	8659.9	17.631	206.200	16.525	262.667	193.552	196.820	201.684	192.706	8192	-8191	8192	8192	254	
77044.977	1	1	0	0	4652.9	4871.14	4405.91	13.7264	3451.55	1653.22	500.679	4973.97	6872.18	7895.8	6670.43	121.995	5092.43	2684.6	946.125	8654.12	18.044	205.510	16.136	253.292	193.216	194.698	198.950	193.862	8192	-8191	8192	8192	254	
77045.023	1	1	0	0	4596.51	4908.97	4421.6	7.23707	3544.68	1653.11	528.698	4988.12	6789.61	7963.04	6719.52	121.111	5168.76	2682.32	975.543	8693.98	17.536	206.278	15.856	188.068	192.948	195.699	200.285	193.521	8192	-8191	8192	8192	254	
77045.070	1	1	0	0	4633.76	4866.7	4314.99	15.1747	3543.56	1668.96	482.399	4920.96	6889.13	7912.49	6663.85	132.716	5149.17	2676.72	985.312	8672.62	18.129	205.332	16.715	222.096	193.532	197.292	200.496	193.203	8192	-8191	8192	8192	254	
77045.117	1	1	0	0	4596.55	4783.36	4402.28	5.94996	3451.8	1603.99	513.826	4979.49	6874.75	7878.72	6704.68	136.88	5143.63	2660.89	985.692	8691.2	18.019	206.135	16.510	189.550	193.094	197.555	199.704	193.535	8192	-8191	8192	8192	254	
77045.188	1	1	0	0	4559.5	4851.35	4424.73	9.22933	3480.16	1686.4	521.841	4863.84	6866.3	7931.95	6708.99	123.942	5128.62	2708.11	975.418	8629.7	17.708	205.605	15.773	165.050	192.633	197.207	199.629	193.711	8192	-8191	8192	8192	254	
77045.234	1	1	0	0	4583.88	4824.14	4341.23	4.39133	3575.62	1627.91	507.194	4982.79	6869.15	7916.82	6689.67	135.332	5173.89	2678.94	991.106	8721.68	16.863	205.885	16.015	263.426	192.978	196.602	196.462	193.389	8192	-8191	8192	8192	254	
77045.289	1	1	0	0	4586.73	4868.98	4376.25	5.908	3509.29	1638.17	530.855	4968.37	6853.67	7919.42	6696.62	137.788	5129.28	2679.17	997.058	8653.73	17.844	205.729	16.132	155.062	192.502	196.920	200.228	193.019	8192	-8191	8192	8192	254	
77045.336	1	1	0	0	4598.11	4863.35	4330.62	8.39248	3495.48	1623.52	500.388	4956.39	6895.04	7898.18	6690.62	126.327	5112.9	2702.62	965.37	8704.36	17.919	206.051	15.863	196.650	192.582	196.725	200.314	193.235	8192	-8191	8192	8192	254	
77045.383	1	1	0	0	4678.84	4825.32	4343	11.7791	3499.77	1658.94	512.603	5045.43	6873.29	7856.66	6731.16	123.668	5171.99	2676.26	965.322	8710.04	18.031	205.688	16.529	204.342	192.894	195.332	198.808	192.984	8192	-8191	8192	8192	254	
77045.430	1	1	0	0	4583.75	4840.92	4408.87	10.3773	3484.76	1625.04	527.927	5039.94	6846.4	7843.42	6728.47	136.928	5136.54	2672.74	973.995	8730.12	17.550	206.590	15.804	211.964	193.057	197.440	201.475	194.012	8192	-8191	8192	8192	254	
77045.430	1	1	0	0	4573.87	4847.43	4317.12	8.02653	3476.94	1654.6	520.182	5026.43	6815.51	7903.44	6676.12	125.894	5106.34	2665.84	983.62	8719.13	17.229	205.202	16.664	216.106	192.779	197.506	201.931	193.334	8192	-8191	8192	8192	254	
77045.477	1	1	0	0	4577.65	4833.21	4362.17	10.1502	3466.6	1592.9	515.705	4989.03	6857.09	7875	6704.68	141.308	5139.96	2670.55	981.043	8724.43	17.333	206.358	16.052	117.233	192.346	196.975	200.587	193.149	8192	-8191	8192	8192	254	
77045.523	1	1	0	0	4640.79	4866.3	4259.52	8.19572	3506	1649.66	511.11	5035.77	6883.23	7963.28	6649.45	169.385	5206.88	2728.61	1029.21	8767.72	17.946	205.338	16.168	218.699	193.842	195.964	201.815	193.231	8192	-8191	8192	8192	254	
77045.570	1	1	0	0	4638.13	4829.27	4298.53	11.2269	3470.76	1657.47	528.235	4950.74	6929.56	8010.27	6712.06	214.154	5200.89	2767.52	1086.4	8784.06	18.299	206.247	15.921	158.923	193.141	197.223	200.171	192.631	8192	-8191	8192	8192	254	
77045.648	1	1	0	0	4619.4	4765.7	4368.02	13.5216	3446.35	1707.26	512.361	4962.31	6982.67	7977.39	6772.59	222.606	5180.96	2817.14	1071.49	8839.54	17.673	205.427	16.079	253.548	192.771	196.989	202.240	192.989	8192	-8191	8192	8192	254	
77045.695	1	1	0	0	4630.29	4915.12	4327.19	20.8709	3476.49	1642.07	514.876	4946.6	6962.89	8041.36	6795.39	243.115	5243.22	2786.97	1102.53	8811.69	16.879	205.713	16.435	263.568	193.269	196.196	197.896	193.057	8192	-8191	8192	8192	254	
77045.742	1	1	0	0	4569.87	4875.92	4370.87	11.2659	3455.26	1657.47	513.364	4988.78	6962.34	8082.79	6821.25	273.476	5250.88	2796.04	1092.13	8823.76	17.805	205.065	17.056	248.524	193.077	196.077	197.395	192.408	8192	-8191	8192	8192	254	
77045.789	1	1	0	0	4609.75	4805.68	4330.68	10.9448	3428.82	1631.42	502.632	4991.17	7006.83	8042.15	6816.02	276.832	5261	2813.38	1115.45	8830.18	18.333	206.140	16.566	223.929	193.749	196.969	201.994	192.689	8192	-8191	8192	8192	254	
77045.836	1	1	0	0	4625.81	4746.59	4366.28	23.8401	3507.31	1655.87	532.527	4869.35	7017.51	8003.78	6851.96	301.452	5325.08	2861.14	1165.56	8819.7	17.686	205.515	16.463	156.503	192.884	195.925	199.660	193.514	8192	-8191	8192	8192	254	
77045.883	1	1	0	0	4612.46	4911.69	4403.11	20.2574	3494.93	1605.65	500.856	4935.92	7070.3	8108.3	6890.83	290.894	5310.82	2801.11	1159.81	8850.55	17.655	205.697	17.529	177.124	192.911	195.375	199.035	192.611	8192	-8191	8192	8192	254	
77045.930	1	1	0	0	4605.75	4902.21	4311.64	3.27694	3417.59	1618.88	489.056	4882.97	7059.87	8133.83	6836.56	315.957	5277.4	2829.39	1149.47	8742.73	17.640	205.871	16.727	303.420	192.813	198.002	198.450	193.724	8192	-8191	8192	8192	254	
77045.984	1	1	0	0	4447.36	4770.94	4304.04	9.57719	3413.18	1633.28	514.162	4928.06	6894.75	7984.92	6777.49	329.385	5249.99	2832.17	1165.54	8730.17	18.110	206.408	16.352	198.979	194.471	196.853	197.077	193.102	8192	-8191	8192	8192	254	
77046.055	1	1	0	0	4551.56	4779.46	4281.28	7.08046	3402.86	1586.62	492.659	4896.76	6985.17	8005.94	6759.9	323.606	5233.68	2824.33	1157.2	8769.75	18.057	205.609	16.905	135.324	193.224	197.049	198.384	193.042	8192	-8191	8192	8192	254	
77046.102	1	1	0	0	4552.65	4759.83	4219.97	12.4021	3382.27	1562.48	506.365	4847.5	6966.93	7906.21	6727.05	320.062	5188.19	2776.85	1151.94	8677.87	17.868	206.088	15.667	128.852	193.533	196.158	197.563	193.302	8192	-8191	8192	8192	254	
77046.148	1	1	0	0	4490.24	4495.67	3486.22	12.1473	1085.44	203.645	18.6002	70.1125	6874.16	7457.67	5559.65	267.659	1783.46	525.062	215.303	294.721	17.897	207.103	15.924	85.109	193.069	196.172	215.159	184.967	8192	-8191	8192	8192	254	
77046.195	1	1	0	0	11.8415	19.4994	11.8565	7.39	60.3748	8.01115	28.5696	166.975	196.274	194.327	205.245	362.462	1734.23	5401.03	13339.6	14227.9	37.492	176.942	82.158	9.553	107.241	48.017	242.399	106.637	8192	-8191	8192	8192	254	
77046.195	1	1	0	0	71.1246	12.8531	59.3171	61.9187	19.9272	30.7085	99.3979	54.0878	16414.7	16261	16882.4	18449.1	19938	21617	20338.2	20342.9	274.128	296.452	337.549	167.585	294.812	55.075	258.844	21.270	8192	-8191	8192	8192	254	
77046.242	1	1	0	0	186.659	44.0834	162.653	99.4882	77.4409	137.571	83.4796	93.3198	19860.5	21462.7	20841.3	20431.4	20141.4	21611	22874.5	21576.1	204.244	119.307	252.933	46.842	233.703	69.356	295.759	259.113	8192	-8191	8192	8192	254	
77046.297	1	1	0	65536	151.375	130.887	91.5686	136.157	74.7963	132.375	106.432	148.904	20026.2	19179.7	20848.8	22423.3	23024.9	26236.5	27459.1	24759.1	302.145	232.468	65.983	105.349	322.929	83.621	347.303	269.366	8192	-8191	8192	8192	254	
77046.344	1	1	0	65536	42.4968	66.4538	137.753	75.0877	157.088	129.91	66.7279	68.8035	23708.9	23028.7	22733.8	22328	22700.5	30231.4	26512.2	19767.9	140.270	132.325	118.145	103.078	124.250	77.710	255.990	277.561	8192	-8191	8192	8192	254	
77046.414	1	1	0	65536	260.897	83.5089	73.4939	113.452	10.5002	22.1943	210.75	98.7054	26728	26534.4	32321.2	31284.8	26891.1	25273.2	24829.8	25522.3	136.363	195.095	331.758	323.494	279.620	218.221	115.579	53.093	8192	-8191	8192	8192	254	
77046.461	1	1	0	65536	84.1595	18.2016	108.454	128.453	129.102	38.5461	126.951	134.652	25979.4	25890.6	25595	25590	26198.5	27079.4	26871.5	25266.7	233.895	65.414	11.471	336.114	293.955	289.025	291.847	287.602	8192	-8191	8192	8192	254	
77046.508	1	1	0	0	169.977	215.94	73.5414	26.9359	59.0633	17.913	61.6217	16.2013	22908.9	14812	5346.53	3302.38	6071.73	8180.62	8299.92	8193.3	130.959	277.717	301.691	231.028	115.033	50.006	327.472	98.258	8192	-8191	8192	8192	254	
77046.555	1	1	0	0	67.0965	54.5591	39.1468	67.784	73.0108	53.1814	15.6663	22.7121	8194.67	8219.27	8211.97	8193.87	8130.44	8244.04	8284.46	8342.52	129.831	113.960	123.760	245.488	213.022	213.122	219.187	348.155	8192	-8191	8192	8192	254	
77046.602	1	1	0	0	46.3248	40.0478	58.2003	29.0638	16.9346	26.6018	72.4433	48.478	8342.76	8452.02	8342.76	8378.81	8387.63	8381.84	8344.61	8334.34	39.696	358.538	252.875	315.245	18.882	100.085	106.556	240.306	8192	-8191	8192	8192	254	
77046.656	1	1	0	0	47.6097	69.6043	37.3885	97.1456	64.5293	73.7364	104.11	19.3955	8384.17	8470.02	8456.66	8559.84	8577.59	8540.82	8575.35	8578.06	202.006	188.374	112.435	209.878	330.163	13.756	258.690	43.184	8192	-8191	8192	8192	254	
77046.727	1	1	0	0	30.4268	83.9876	45.0296	108.75	9.43617	10.9228	13.6093	14.0534	8534	8537.27	8457.4	8180.82	2408.8	1446.85	1464.05	1454.37	303.213	61.785	122.816	267.438	335.891	132.948	65.047	130.494	8192	-8191	8192	8192	254	
77046.773	1	1	0	0	28.5413	20.9793	48.376	19.2096	13.4988	25.0743	20.6795	26.1218	1444.39	1479.08	1530.99	1512.35	1526.18	1514.77	1549.77	1536.56	83.680	133.697	104.808	99.464	215.516	298.214	210.117	304.702	8192	-8191	8192	8192	254	
77046.820	1	1	0	0	19.1505	7.39369	15.2859	5.42288	17.2558	13.346	27.9727	12.0321	1534.18	1558.71	1538.24	1528.57	1545.54	1507.5	1511.51	1546.17	209.632	33.300	98.392	37.547	113.512	1.647	301.308	299.791	8192	-8191	8192	8192	254	
77046.867	1	1	0	0	15.0665	43.9072	4.27441	26.4654	19.0187	8.21369	20.6687	22.1104	1540.54	1525.83	1573.76	1567.03	1573.73	1601.71	1606.83	1712.76	329.883	126.403	110.042	356.772	256.113	252.516	302.802	263.032	8192	-8191	8192	8192	254	
77046.922	1	1	0	0	21.7123	9.1878	31.1322	6.79177	45.1956	27.1355	28.6313	17.5856	1745.13	1756.42	1780.55	1909.57	2669.6	1434.71	775.471	540.577	157.428	53.691	195.512	157.048	297.523	315.829	351.521	348.651	8192	-8191	8192	8192	254	
77046.969	1	1	0	0	2.13277	3.03852	7.7107	6.877	4.39701	7.94085	5.66928	14.3734	405.644	339.567	277.433	285.014	273.423	272.159	284.38	282.548	328.772	10.256	234.588	225.706	96.405	266.247	53.881	154.227	8192	-8191	8192	8192	254	
77046.969	1	1	0	0	13.0796	21.9678	3.60631	3.12802	8.32705	9.20718	8.90081	11.4319	280.111	272.755	275.216	284.5	276.183	286.909	285.231	271.115	255.204	37.789	275.571	174.006	107.256	123.658	104.322	275.288	8192	-8191	8192	8192	254	
77047.016	1	1	0	0	11.4684	19.5245	4.7509	13.1208	7.87056	9.32294	12.1709	2.25308	273.096	268.596	256.938	263.837	240.293	226.029	207.788	201.101	283.354	108.995	276.512	311.568	222.297	270.178	323.483	285.655	8192	-8191	8192	8192	254	
77047.062	1	1	0	0	3.86771	7.13204	4.56428	7.85875	7.48845	10.5175	4.20539	10.0734	201.736	192.062	189.192	188.692	181.812	174.894	171.284	174.899	188.526	95.687	58.444	179.747	180.183	118.973	255.696	270.147	8192	-8191	8192	8192	254	
77047.109	1	1	0	0	8.76854	4.01798	8.04208	5.14	4.30111	12.0441	6.89421	50.4268	173.524	176.303	166.591	167.255	179.62	176.274	184.25	267.231	210.124	280.481	48.584	50.939	198.204	350.350	329.817	197.510	8192	-8191	8192	8192	254	
77047.180	1	1	0	0	47.1413	112.738	234.956	6.48154	592.697	342.438	131.359	1274.59	260.625	382.577	591.841	273.202	1133.91	892.562	578.928	2538.5	16.226	209.689	21.880	126.993	198.347	200.252	201.917	197.921	8192	-8191	8192	8192	254	
77047.227	1	1	0	0	1067.04	1110.12	1025.95	5.08662	841.88	404.003	130.857	1297.83	1963.94	2162.81	1942.93	400.159	1611.93	1042.34	627.438	2633.85	23.974	213.212	21.132	119.347	197.517	198.250	210.156	198.154	8192	-8191	8192	8192	254	
77047.281	1	1	0	0	1112.08	1121.2	1055.49	28.0287	893.208	418.054	148.291	1319.07	2037.9	2264.64	1976.91	404.572	1672.82	1092.46	629.13	2695.26	23.544	214.653	23.159	6.526	196.265	204.056	203.326	198.220	8192	-8191	8192	8192	254	
77047.328	1	1	0	0	1122.19	1146.79	1046.08	7.895	915.206	428.2	134.875	1304.96	2069.45	2299.68	2015.52	411.736	1706.08	1102.73	656.457	2678.2	24.725	211.591	20.940	184.342	198.472	201.758	200.442	200.042	8192	-8191	8192	8192	254	
77047.375	1	1	0	0	1121.04	1199.15	1086.89	17.1184	863.033	418.165	122.412	1224.71	2093.95	2328.88	2045.8	441.125	1688.42	1080.09	671.587	2651.03	23.419	209.411	22.614	207.731	200.079	197.500	210.748	199.608	8192	-8191	8192	8192	254	
77047.422	1	1	0	0	1091.29	1132.6	1009.04	1.46353	870.542	457.371	117.813	1211.38	2036.51	2264.51	2048.26	489.995	1726.19	1152.34	700.221	2614.42	23.900	212.304	21.506	327.162	198.177	202.160	200.088	197.963	8192	-8191	8192	8192	254	
77047.492	1	1	0	0	1085.17	1091.54	999.482	13.8121	804.731	380.815	133.88	1148.41	2040.19	2228.5	1910.34	399.74	1542.96	982.865	554.139	2337.17	23.064	212.106	24.374	128.937	199.072	202.631	196.703	201.279	8192	-8191	8192	8192	254	
77047.539	1	1	0	0	979.132	1016.47	952.78	4.65538	767.066	368.022	110.344	1162.45	1772.95	1922.02	1705.16	263.481	1361.08	805.096	412.524	2193.9	24.987	210.809	22.356	245.642	198.257	199.009	197.843	198.555	8192	-8191	8192	8192	254	
77047.586	1	1	0	0	994.419	977.22	905.599	15.1666	788.757	378.79	123.033	1137.35	1630.57	1787.35	1575.77	187.101	1284.88	762.216	381.808	2147.75	24.941	211.229	21.775	269.886	198.112	202.420	214.574	199.299	8192	-8191	8192	8192	254	
77047.641	1	1	0	0	970.205	969.343	892.608	2.58341	771.549	368.072	123.544	1099.78	1566.83	1720.76	1518.06	137.394	1238.52	708.337	331	2077.06	21.600	211.285	20.763	326.194	196.936	202.078	204.355	198.019	8192	-8191	8192	8192	254	
77047.688	1	1	0	0	991.341	985.875	922.051	3.43303	736.26	387.534	113.577	1144.64	1557.23	1700.43	1488.33	115.438	1178.79	702.13	306.894	2096.73	23.186	212.586	21.660	131.263	197.637	201.983	201.019	196.696	8192	-8191	8192	8192	254	
77047.734	1	1	0	0	953.254	965.488	907.988	4.00439	738.734	381.882	122.855	1146.82	1504.34	1676.48	1472.46	111.981	1177.58	678.856	302.692	2072.59	23.739	210.211	22.255	68.357	198.580	202.337	205.802	199.268	8192	-8191	8192	8192	254	
77047.734	1	1	0	0	948.64	1007.27	890.89	5.59296	778.477	351.305	105.984	1157.59	1491.69	1694.88	1457.8	104.466	1217.21	677.889	295.875	2074.81	22.142	210.064	22.384	185.995	198.207	203.472	203.873	197.511	8192	-8191	8192	8192	254	
77047.781	1	1	0	0	941.843	983.06	891.138	3.6424	780.961	378.793	117.586	1128.45	1513.89	1683.62	1464.66	101.808	1209.7	695.154	316.101	2080.99	23.285	214.191	22.971	61.037	197.807	201.383	205.130	198.446	8192	-8191	8192	8192	254	
77047.852	1	1	0	0	960.824	990.48	892.799	4.16178	765.853	355.479	109.781	1136.27	1518.67	1707.26	1481.14	112.212	1227.3	685.399	309.433	2061.1	25.064	212.740	22.232	76.733	198.692	202.697	206.181	197.612	8192	-8191	8192	8192	254	
77047.898	1	1	0	0	948.035	996.362	873.158	4.68028	783.11	353.097	113.83	1155.38	1500.54	1712.19	1479.31	123.841	1221.3	710.38	323.904	2089.91	24.865	212.681	22.145	210.315	197.085	201.635	205.090	198.857	8192	-8191	8192	8192	254	
77047.945	1	1	0	0	1006.65	992.126	902.395	11.4907	785.964	368.351	122.544	1115.11	1567	1723.68	1529.64	192.659	1324.83	819.861	409.851	2118.65	23.794	213.119	21.680	45.648	198.579	200.547	202.829	199.879	8192	-8191	8192	8192	254	
77048.000	1	1	0	0	946.667	964.657	887.701	8.14494	761.418	374.766	123.735	1142.5	1550.19	1734.48	1492.19	132.207	1219.2	715.37	317.649	2085.72	23.018	212.609	23.225	204.477	197.537	202.627	203.968	197.543	8192	-8191	8192	8192	254	
77048.047	1	1	0	0	986.288	987.051	910.188	5.45959	763.927	383.485	138.435	1129.77	1548.54	1697.53	1490.39	123.904	1220.46	710.337	325.308	2048.59	23.638	209.450	23.490	190.960	198.336	199.833	201.462	199.159	8192	-8191	8192	8192	254	
77048.094	1	1	0	0	965.721	1024.25	901.019	6.21345	764.895	382.167	129.642	1118.42	1542.39	1713.25	1463.9	107.269	1201.74	698.942	294.5	2048.95	23.358	211.309	22.678	286.634	199.120	201.045	204.947	199.649	8192	-8191	8192	8192	254	
77048.141	1	1	0	0	990.987	1011.07	906.977	7.41201	794.272	363.625	115.391	1137.15	1510.12	1697.34	1473.24	107.466	1215.75	678.322	293.938	2030.49	23.590	211.254	23.051	70.376	197.751	200.775	206.115	200.185	8192	-8191	8192	8192	254	
77048.188	1	1	0	0	932.859	1021.6	893.137	7.13536	790.702	362.17	117.767	1165.27	1501.25	1713.38	1446.7	95.8173	1213.2	660.346	291.534	2051.26	23.219	211.670	21.574	247.624	198.286	203.222	210.074	198.240	8192	-8191	8192	8192	254	
77048.266	1	1	0	0	951.192	960.132	928.601	0.37778	765.618	362.332	111.697	1136.36	1488.67	1661.61	1463.43	102.808	1195.49	670.341	296.755	2028.39	23.780	210.309	22.471	199.775	198.897	204.534	211.046	199.958	8192	-8191	8192	8192	254	
77048.312	1	1	0	0	967.009	1019.01	902.449	1.88859	748.814	352.547	120.564	1166.22	1507.76	1702.23	1445.73	108.231	1191.34	672.601	307.63	2091.69	24.168	210.840	21.756	183.499	197.200	205.706	205.582	200.227	8192	-8191	8192	8192	254	
77048.359	1	1	0	0	961.384	975.081	887.751	5.97927	761.947	370.472	127.777	1110.3	1512.6	1679.68	1445.52	117.087	1205.73	693.779	303.558	2023.55	23.778	211.372	20.817	189.680	198.141	200.511	202.179	197.138	8192	-8191	8192	8192	254	
77048.406	1	1	0	0	950.979	971.699	867.573	1.50587	779.543	364.06	115.532	1134.46	1495.22	1672.77	1450.39	112.649	1197.15	697.553	310.154	2075.44	23.091	212.492	20.997	206.822	198.487	201.147	207.920	197.885	8192	-8191	8192	8192	254	
77048.453	1	1	0	0	968.401	1016.48	899.262	5.59059	773.623	373.925	126.606	1118.72	1537.95	1695.12	1472.34	114.024	1212.27	698.101	311.462	2066.16	24.241	210.647	22.852	217.802	199.951	201.945	206.397	197.427	8192	-8191	8192	8192	254	
77048.500	1	1	0	0	959.602	1000.2	889.198	1.77687	780.119	371.258	106.738	1167.91	1484.55	1687.35	1442.39	109.207	1216.42	688.053	305.841	2036.95	24.568	212.297	20.774	130.934	199.844	201.861	201.319	196.404	8192	-8191	8192	8192	254	
77048.500	1	1	0	0	969.323	988.297	921.249	8.20905	783.671	381.521	119.111	1104.64	1508.12	1683.19	1482.24	112.312	1206.47	697.351	301.361	2035.44	22.395	211.906	21.927	194.767	197.693	205.148	209.786	201.497	8192	-8191	8192	8192	254	
77048.547	1	1	0	0	973.807	996.613	907.426	8.82378	735.114	387.125	120.949	1161.52	1516.68	1713.48	1463.14	116.159	1200.75	697.707	313.635	2076.74	24.249	211.205	22.906	251.542	198.158	200.460	200.019	199.016	8192	-8191	8192	8192	254	
77048.594	1	1	0	0	966.946	993.937	903.363	1.1886	734.768	365.503	120.634	1130.36	1520.07	1707.89	1472.35	112.721	1199.15	682.188	300.659	2055.89	22.827	211.979	21.914	236.803	198.670	204.931	204.280	199.786	8192	-8191	8192	8192	254	
77048.648	1	1	0	0	976.029	980.308	900.036	9.33764	761.489	378.072	128.771	1165.72	1526.36	1697.64	1493.13	125.231	1212.39	679.452	317.832	2077.09	24.003	211.969	21.645	155.874	199.375	200.529	209.497	197.180	8192	-8191	8192	8192	254	
77048.719	1	1	0	0	938.613	1000.97	921.336	3.82065	764.967	367.193	125.392	1133.64	1514.79	1703.06	1471.08	120.062	1200.2	689.822	306.75	2058.21	23.958	214.420	22.132	230.978	198.507	206.115	209.254	199.915	8192	-8191	8192	8192	254	
77048.766	1	1	0	0	962.727	1013.04	888.557	5.06273	750.151	381.155	103.107	1170.7	1534.12	1708.95	1462.45	105.462	1187.54	690.062	306.216	2059.23	24.131	211.530	20.953	222.324	200.324	196.816	199.729	198.096	8192	-8191	8192	8192	254	
77048.812	1	1	0	0	979.478	960.694	900.621	6.6139	745.366	355.244	115.901	1109.31	1523.27	1677.07	1476.92	111.558	1199.81	681.279	303.99	2065.11	24.529	212.178	22.302	213.766	196.890	202.132	209.111	198.081	8192	-8191	8192	8192	254	
77048.859	1	1	0	0	948.925	1005.77	907.113	7.6319	770.798	383.473	111.974	1181.12	1533.98	1692.88	1461.85	111.457	1206.5	679.558	299.062	2078.71	23.153	211.931	20.958	148.241	198.540	204.380	205.097	198.064	8192	-8191	8192	8192	254	
77048.906	1	1	0	0	952.85	965.693	880.787	5.84123	804.68	356.545	116.835	1119.01	1521.21	1673.16	1463.41	98.6827	1199.74	670.332	296.904	2042.22	24.027	210.844	21.780	100.010	197.452	202.962	208.980	197.133	8192	-8191	8192	8192	254	
77048.961	1	1	0	0	958.957	951.185	893.076	6.7782	734.753	373.379	120.289	1106.03	1514.56	1674.13	1450.46	97.8413	1162.88	677.087	281.428	2017.83	23.146	211.221	21.031	357.142	199.495	202.752	203.134	197.246	8192	-8191	8192	8192	254	
77049.031	1	1	3	0	940.195	997.917	871.497	6.90948	743.602	381.945	105.792	1125.96	1480.63	1667.39	1434.39	94.2788	1174.95	666.639	284.582	2038.01	24.039	211.822	21.546	172.140	197.181	199.354	207.497	196.934	8192	-8191	8192	8192	254	
77049.078	1	1	0	0	966.744	986.222	893.568	4.60743	775.527	381.644	113.134	1140.81	1492.86	1678.07	1435.49	97.1827	1188.07	684.438	286.894	2043.13	25.198	213.047	23.012	186.349	197.387	200.896	200.244	199.235	8192	-8191	8192	8192	254	
77049.125	1	1	0	0	957.662	963.177	860.652	6.91541	783.887	367.333	125.255	1158.1	1462.76	1670.06	1440.8	89.3317	1202.91	650.803	279.697	2020.42	24.700	210.880	22.615	255.202	199.072	202.394	208.491	198.722	8192	-8191	8192	8192	254	
77049.172	1	1	0	0	950.731	980.89	921.084	6.02528	767.082	372.273	100.256	1141.33	1465.52	1646.43	1429.29	63.5913	1150.46	626.202	250.971	1981.73	22.708	210.244	20.714	152.635	199.894	202.966	204.907	200.137	8192	-8191	8192	8192	254	
77049.219	1	1	0	0	976.69	1010.56	880.236	5.32281	765.01	358.134	120.945	1129.87	1463.37	1638.39	1395.19	47.7548	1138.21	621.087	235.087	1964.24	22.812	211.640	23.727	329.579	197.271	201.224	209.051	199.117	8192	-8191	8192	8192	254	
77049.266	1	1	0	0	961.117	967.833	938.01	3.79573	771.354	370.367	118.249	1112.72	1441.77	1623.95	1425.01	48.2163	1142.08	621.168	243.885	1983.92	23.597	213.539	20.746	250.716	196.314	198.914	203.432	198.980	8192	-8191	8192	8192	254	
77049.273	1	1	0	0	981.647	1015.05	923.152	3.17622	758.701	392.459	104.97	1134.41	1467.62	1637.74	1408.9	48.2885	1130.82	632.332	242.413	1994.77	24.216	211.348	22.303	37.528	197.948	202.022	206.854	199.861	8192	-8191	8192	8192	254	
77049.320	1	1	0	0	923.145	960.878	900.404	5.09709	773.705	365.379	127.534	1125.63	1419.51	1615.19	1431.23	49.0144	1135.62	633.615	255.76	1982.61	23.402	212.119	23.154	313.864	198.422	203.093	207.157	198.713	8192	-8191	8192	8192	254	
77049.391	1	1	0	0	972.329	973.602	868.811	2.45914	750.657	359.846	119.272	1150.91	1475.78	1614.29	1406.18	60.2981	1148.75	646.471	278.832	2039.81	24.100	212.284	20.835	331.770	198.576	200.662	205.723	197.837	8192	-8191	8192	8192	254	
77049.438	1	1	0	0	974.823	989.689	897.537	4.39662	739.95	377.494	117.313	1126.18	1519.02	1663.64	1446.19	97.0865	1152.7	678.798	295.726	2047.12	24.575	213.615	22.263	347.671	197.497	202.836	198.136	198.469	8192	-8191	8192	8192	254	
77049.484	1	1	0	0	958.579	952.329	894.966	3.47677	789.661	386.085	126.7	1165.44	1491.85	1669.93	1463.56	92.3125	1201	685.462	279.529	2058.06	23.177	212.001	21.741	256.743	199.970	203.251	202.913	198.212	8192	-8191	8192	8192	254	
77049.531	1	1	0	0	939.992	1000.13	931.456	12.339	757.68	373.828	115.493	1141.39	1462.58	1674.28	1457.09	86.6442	1186.26	677.269	281.288	2034.32	23.974	211.777	22.177	175.364	200.730	199.683	208.149	197.684	8192	-8191	8192	8192	254	
77049.578	1	1	0	0	938.798	988.365	876.06	4.5954	778.269	359.347	114.66	1119.35	1495.84	1658.64	1430.26	84.0913	1181.99	651.529	270.12	2014.23	23.558	211.692	21.181	81.077	198.417	203.596	206.200	199.364	8192	-8191	8192	8192	254	
77049.633	1	1	0	0	954.243	989.714	901.293	8.59136	765.764	375.06	114.669	1138.76	1477.41	1661.25	1437.75	87.6683	1178.12	648.418	276.221	2014.12	23.378	210.935	23.427	216.123	198.557	202.869	204.158	199.095	8192	-8191	8192	8192	254	
77049.680	1	1	0	0	957.216	983.484	901.635	7.69573	772.993	373.71	114.206	1120.83	1490.55	1666.51	1437.6	82.2692	1176.01	660.38	275.75	2003.45	24.497	211.655	23.104	176.858	197.786	203.686	207.214	196.423	8192	-8191	8192	8192	254	
77049.727	1	1	0	0	940.351	968.565	899.644	4.66786	746.701	386.021	115.461	1092.32	1464.67	1632.02	1429.04	75.774	1153.6	668.562	272.26	1987.82	24.238	211.936	21.354	170.288	196.783	200.696	210.547	197.109	8192	-8191	8192	8192	254	
77049.797	1	1	0	0	967.039	966.121	921.561	2.77855	787.61	385.256	116.453	1166.19	1511.93	1666.63	1452.06	73.8029	1169.27	669.346	276.125	2048.81	23.330	211.901	21.229	257.203	197.526	200.813	205.307	197.704	8192	-8191	8192	8192	254	
77049.844	1	1	0	0	954.887	975.469	928.031	5.87662	754.348	388.267	117.936	1102.99	1480.62	1654.12	1455.43	77.6058	1166.83	650.082	265.99	1983.6	24.897	211.442	21.449	104.302	199.324	201.844	202.150	199.160	8192	-8191	8192	8192	254	
77049.891	1	1	0	0	988.116	979.755	890.612	8.66379	784.263	370.138	119.276	1144.22	1478.84	1649.4	1418.5	63.5337	1162.4	633.356	253.928	2026.63	22.704	211.960	21.059	306.971	198.061	198.673	201.593	196.975	8192	-8191	8192	8192	254	
77049.945	1	1	0	0	949.231	972.4	902.743	0.385819	769.93	363.241	113.503	1101.17	1457.05	1621.87	1407.68	54.8654	1135.52	625.865	240.938	1995.37	22.762	211.466	24.350	249.233	196.443	201.479	203.415	197.214	8192	-8191	8192	8192	254	
77049.992	1	1	0	0	968.191	997.529	912.754	4.67348	761.903	365.949	110.75	1130.39	1454.71	1641.62	1393.67	51.7644	1138.51	615.942	238.712	1995.36	23.838	212.375	20.988	290.206	198.905	202.974	205.418	198.953	8192	-8191	8192	8192	254	
77050.039	1	1	0	0	981.178	984.933	884.639	5.324	763.517	352.709	123.118	1113.91	1465.34	1650.68	1410.87	52.524	1144.86	616.072	247.524	2013.79	23.961	210.746	21.829	286.856	199.208	203.142	207.821	199.258	8192	-8191	8192	8192	254	
77050.039	1	1	0	0	965.594	998.83	896.283	3.90012	761.757	367.101	115.792	1151.83	1455.07	1634.44	1391.91	53.8317	1137.97	620.577	256.76	2013.89	22.524	212.906	20.737	184.812	197.961	201.406	206.477	199.630	8192	-8191	8192	8192	254	
77050.086	1	1	0	0	960.302	975.302	898.123	3.54889	793.171	365.381	123.875	1125.43	1459.21	1626.11	1413.78	49.0962	1178.82	625.909	257.476	1998.45	23.628	212.544	22.715	172.471	198.401	202.898	206.517	197.436	8192	-8191	8192	8192	254	
77050.133	1	1	0	0	967.823	1004.9	916.8	2.17901	773.334	386.043	107.743	1141.37	1456.42	1652.61	1409.07	48.5913	1158.78	635.043	244.385	2030.3	22.323	210.498	23.292	40.942	196.956	201.410	212.292	198.988	8192	-8191	8192	8192	254	
77050.180	1	1	0	0	945.102	1017.87	936.452	4.98627	767.107	350.619	117.669	1134	1445.72	1658.76	1429.27	57.0962	1152.49	624.341	249.894	2026.02	24.297	211.259	21.047	322.009	199.581	201.718	203.729	198.946	8192	-8191	8192	8192	254	
77050.258	1	1	0	0	962.062	982.26	896.683	4.23506	788.308	370.124	110.076	1111.15	1449.11	1647.2	1402.85	54.6154	1161.17	631.808	249.923	1978.6	24.426	211.616	19.969	268.274	198.626	204.449	207.975	198.398	8192	-8191	8192	8192	254	
77050.305	1	1	0	0	971.48	958.036	888.414	4.14517	735.954	350.788	118.841	1100.49	1463.14	1617.49	1400.36	54.7115	1135.74	623.048	243.745	1982.89	24.009	212.800	22.817	241.829	198.249	198.587	204.866	198.584	8192	-8191	8192	8192	254	
77050.352	1	1	0	0	926.071	990.48	887.24	3.15817	784.261	372.387	129.589	1152.39	1440.32	1634.9	1389.85	56.2885	1165.59	630.38	249.207	2009.09	23.551	212.954	21.886	273.840	197.452	200.264	200.312	196.792	8192	-8191	8192	8192	254	
77050.398	1	1	0	0	973.254	985.599	888.139	10.8215	755.845	370.879	124.606	1151.87	1452.65	1646.69	1407.01	49.5288	1136.19	630.279	254.361	1973.03	23.237	212.482	21.619	194.763	199.683	200.875	205.669	197.318	8192	-8191	8192	8192	254	
77050.445	1	1	0	0	920.049	975.83	915.196	4.09128	775.742	391.835	124.509	1097.44	1444.78	1636.84	1407.76	56.8365	1152.5	646.183	255.231	1963.36	23.617	212.889	22.195	216.174	198.028	203.275	203.548	198.730	8192	-8191	8192	8192	254	
77050.492	1	1	0	0	931.387	1021.69	895.172	6.93588	736.319	386.162	116.052	1133.69	1445.84	1672.36	1412.82	55.0529	1131.72	633.538	242.942	1950.23	24.172	213.189	21.666	134.717	198.579	201.642	205.991	197.721	8192	-8191	8192	8192	254	
77050.539	1	1	0	0	984.862	981.02	876.858	2.9295	768.861	393.485	109.867	1129.43	1458.3	1652.97	1396.72	52.3413	1140.75	634.452	240.971	1975.92	23.253	211.819	22.379	90.599	198.348	203.310	211.253	198.793	8192	-8191	8192	8192	254	
77050.594	1	1	0	0	968.613	991.69	888.957	0.994305	756.633	366.462	117.516	1125.21	1468.39	1634.97	1402.79	50.1202	1141.75	619.144	243.428	2000.89	23.546	212.554	20.996	314.119	200.125	204.231	210.814	198.191	8192	-8191	8192	8192	254	
77050.664	1	1	0	0	986.476	987.464	868.048	6.98142	774.218	389.1	119.369	1142.33	1466.5	1653.31	1383.1	50.3654	1146.9	639.043	260.438	2008.5	24.288	212.658	21.419	203.164	199.243	203.000	205.521	196.464	8192	-8191	8192	8192	254	
77050.711	1	1	0	0	964.304	989.679	873.117	2.42724	755.466	363.641	111.707	1111.06	1445.06	1643.85	1410.05	50.0625	1129.92	620.236	238.096	1975.33	24.273	213.649	21.454	215.469	198.077	203.983	206.431	197.950	8192	-8191	8192	8192	254	
77050.758	1	1	0	0	964.823	995.146	919.193	5.20842	773.833	363.202	119.539	1122.68	1444.04	1666.59	1438.34	51.3846	1165.35	620.63	250.942	2010.29	23.841	212.871	22.098	282.930	198.032	202.211	206.884	196.852	8192	-8191	8192	8192	254	
77050.805	1	1	0	0	920.986	998.953	901.856	4.93535	756.026	388.548	103.8	1123.05	1429.41	1653.62	1408.44	56.5865	1153.77	632.231	241.558	1975.01	22.667	212.345	22.381	212.606	197.547	200.647	202.725	196.799	8192	-8191	8192	8192	254	
77050.805	1	1	0	0	959.556	967.917	928.549	4.67465	750.974	383.948	115.191	1091.57	1460.57	1643.02	1424.66	59.1683	1133.04	634.971	250.433	1946.97	24.960	211.385	21.302	356.640	197.840	201.233	200.843	198.315	8192	-8191	8192	8192	254	
77050.852	1	1	0	0	949.442	978.049	927.467	3.92412	801.148	368.325	111.263	1127.55	1451.75	1630.34	1432.03	65.9231	1186.14	646.601	267.298	2005.02	25.410	212.784	21.621	212.768	201.580	202.294	203.000	197.473	8192	-8191	8192	8192	254	
77050.898	1	1	0	0	963.674	970.738	914.918	10.4566	775.565	375.32	107.044	1131.39	1480.5	1659.55	1441.59	73.9519	1178.62	660.462	261.562	2007.75	25.041	212.181	23.302	265.059	197.754	205.192	200.513	199.801	8192	-8191	8192	8192	254	
77050.953	1	1	0	0	950.739	966.248	885.341	6.88809	751.043	398.488	113.295	1164.72	1451.14	1639.95	1429.57	81.2692	1176.6	665.745	281.885	2039.35	22.507	211.695	22.385	238.057	196.738	201.264	208.605	199.619	8192	-8191	8192	8192	254	
77051.023	1	1	0	0	965.878	1025.17	886.367	6.85816	758.429	373.074	108.159	1134.88	1476.58	1701.32	1447.79	86.2404	1182.79	667.337	281.952	2075.85	24.577	211.580	22.898	188.778	198.528	201.882	203.868	199.510	8192	-8191	8192	8192	254	
77051.070	1	1	0	0	940.32	996.871	911.789	12.2946	745.787	393.613	104.586	1126.47	1483.07	1665.26	1459.71	89.3173	1178.88	679.952	282.332	2031.07	23.603	213.017	22.196	244.218	197.956	202.446	203.889	197.998	8192	-8191	8192	8192	254	
77051.117	1	1	0	0	948.166	997.546	870.523	4.74135	748.888	395.733	109.481	1136.26	1494.87	1671.53	1428.59	93.6346	1182.96	689.894	291.861	2043.48	24.349	211.918	21.363	127.721	198.521	201.273	208.423	199.645	8192	-8191	8192	8192	254	
77051.164	1	1	0	0	922.107	957.255	897.2	5.14388	774.74	370.132	124.933	1118.49	1460.83	1662.54	1441.39	90.2019	1180.17	675.788	290.567	2018.13	24.702	211.599	22.368	128.628	198.635	202.531	200.215	199.596	8192	-8191	8192	8192	254	
77051.211	1	1	0	0	946.47	989.576	908.177	4.87368	756.021	381.215	106.438	1139.06	1484.91	1668.34	1447.44	89.9279	1200.1	694.476	279.832	2044.18	24.947	211.115	21.421	50.409	198.056	203.417	200.303	198.553	8192	-8191	8192	8192	254	
77051.258	1	1	0	0	945.803	976.424	919.11	4.62976	733.699	359.956	110.293	1129.23	1480.33	1659.34	1446.86	85.1154	1157.75	653.659	283.861	2025.75	24.418	211.739	22.053	207.609	194.625	202.513	203.727	198.542	8192	-8191	8192	8192	254	
77051.336	1	1	0	0	953.059	1005.18	923.816	6.37676	753.386	357.912	125.353	1119.75	1478.62	1691.13	1451.21	88.0962	1181.38	654.548	283.375	2031.39	24.538	212.524	21.450	262.602	200.181	204.139	207.967	198.183	8192	-8191	8192	8192	254	
77051.383	1	1	0	0	988.016	984.527	934.155	11.9434	748.323	376.81	117.92	1133.03	1518.7	1681.82	1446.79	92.7644	1165.71	658.99	290.438	2032.98	22.232	213.450	22.500	193.113	198.419	201.973	210.619	196.927	8192	-8191	8192	8192	254	
77051.430	1	1	0	0	971.401	1016.89	855.13	5.81474	751.755	387.32	124.249	1129.26	1506.3	1695.92	1440.49	90.1635	1172.32	680.034	295.144	2038.18	25.010	211.519	21.850	143.753	198.654	199.630	200.333	198.502	8192	-8191	8192	8192	254	
77051.477	1	1	0	0	971.39	993.173	899.577	5.85997	748.7	373.803	110.339	1143.01	1496.54	1666.75	1451.66	90.2452	1163.87	658.591	275.394	2047.8	23.538	209.179	22.933	145.547	199.497	201.994	202.145	196.796	8192	-8191	8192	8192	254	
77051.523	1	1	0	0	943.092	1020.3	868.098	11.6536	753.466	381.295	124.693	1129.2	1470.39	1690.65	1432.9	92.024	1180.02	678.596	300.524	2041.2	22.413	211.555	25.039	173.111	198.385	199.857	202.820	200.179	8192	-8191	8192	8192	254	
77051.570	1	1	0	0	962.801	960.59	895.635	1.08844	727.759	394.694	129.694	1129.87	1488.69	1650.75	1427.59	84.6202	1164.86	677.899	289.913	2028.63	25.133	211.399	24.276	198.562	198.630	201.986	209.999	197.767	8192	-8191	8192	8192	254	
77051.570	1	1	0	0	942.763	1000.77	905.585	8.28603	771.324	377.614	104.171	1095.48	1490.48	1659.79	1444.26	90.6827	1196.8	675.885	283.034	2001.09	23.765	212.646	20.434	211.163	198.204	200.398	206.150	197.783	8192	-8191	8192	8192	254	
77051.625	1	1	0	0	935.221	952.95	915.822	1.73647	749.431	379.567	107.787	1116.03	1475.36	1641.98	1464.05	93.1875	1177.88	666.885	278.154	1997.36	22.334	212.573	21.340	86.006	199.129	198.747	203.076	196.814	8192	-8191	8192	8192	254	
77051.672	1	1	0	0	913.815	975.117	937.925	1.97269	762.929	369.691	116.576	1122.42	1481.04	1679.4	1471.14	92.101	1193.03	672.231	280.087	2022.15	25.163	212.732	21.515	266.441	197.313	200.223	206.640	197.995	8192	-8191	8192	8192	254	
77051.719	1	1	0	0	954.83	1001.71	894.929	12.2528	740.425	357.045	124.39	1134.29	1498.05	1702.12	1444.13	91.2308	1163.83	663.322	287.279	2012.96	22.983	210.240	21.687	101.389	197.888	201.044	205.912	199.555	8192	-8191	8192	8192	254	
77051.789	1	1	0	0	969.735	959.04	855.117	5.48586	746.346	364.069	126.332	1087.4	1487.02	1667.04	1430.37	94.4087	1168.82	671.519	279.673	1984.09	23.578	213.461	20.044	192.704	197.774	202.003	206.969	199.564	8192	-8191	8192	8192	254	
77051.836	1	1	0	0	962.569	990.408	918.372	2.70321	771.68	380.793	113.947	1141.07	1503.43	1685.37	1465.5	99.2115	1177.93	665.356	284.947	2041.15	25.039	212.886	23.965	172.009	198.844	201.026	205.215	197.553	8192	-8191	8192	8192	254	
77051.883	1	1	0	0	991.417	990.596	929.076	6.18176	763.629	370.625	118.373	1155.73	1520.77	1681.89	1467.71	93.7163	1181.07	658.418	284.928	2036	23.324	212.062	22.496	201.986	197.142	202.716	202.230	198.441	8192	-8191	8192	8192	254	
77051.938	1	1	0	0	933.46	983.212	884.907	6.03364	772.806	372.55	123.975	1140.31	1489.86	1656.23	1450.38	86.3125	1180.62	657.837	291.091	2032.15	22.328	212.141	21.514	166.075	198.039	205.037	199.266	200.086	8192	-8191	8192	8192	254	
77051.984	1	1	0	0	966.827	961.225	883.809	5.96449	758.505	361.008	117.345	1133.7	1502.06	1666.2	1444.86	96.226	1175.48	658.303	277.308	2023.46	22.805	214.289	21.260	222.402	198.373	203.085	207.330	198.555	8192	-8191	8192	8192	254	
77052.031	1	1	0	0	972.252	980.799	890.473	11.4609	739.762	343.998	121.841	1107.75	1498.47	1673.12	1445.57	90.3365	1173.22	662.091	290.038	2017.62	22.969	209.751	20.141	359.175	198.905	200.453	208.609	196.270	8192	-8191	8192	8192	254	
77052.078	1	1	0	0	947.008	987.15	899.656	12.6624	781.073	366.205	119.613	1143.49	1507.13	1674.18	1448.32	97.1058	1195.77	660.962	285.476	2037.07	25.023	211.300	20.472	52.228	199.215	202.334	204.983	199.017	8192	-8191	8192	8192	254	
77052.125	1	1	0	0	986.584	1023.82	911.397	3.21872	775.118	376.96	108.68	1146.48	1511.66	1709.06	1455.76	91.6346	1195.79	666.019	292.721	2048.75	23.552	212.670	20.602	235.715	199.443	198.914	205.747	197.096	8192	-8191	8192	8192	254	
77052.195	1	1	0	0	951.707	1006.5	883.874	7.97406	804.135	382.618	125.696	1137.16	1479.26	1685.43	1443.5	93.5192	1201.99	679.423	274.149	2019.19	23.311	212.489	23.068	106.446	198.660	204.041	203.230	199.174	8192	-8191	8192	8192	254	
77052.242	1	1	0	0	997.062	959.284	878.893	5.64858	760.425	355.983	125.934	1129.04	1494.09	1626.2	1409.25	70.9135	1166.08	633.481	263.481	1985.43	23.770	213.319	22.672	109.257	199.199	202.034	200.638	197.401	8192	-8191	8192	8192	254	
77052.297	1	1	0	0	961.942	947.433	884.261	8.6995	775.531	369.443	121.739	1135.78	1455.87	1627.81	1410	50.0577	1151.95	624.082	246.62	1980.12	24.461	211.463	24.313	117.144	198.671	204.267	208.533	197.749	8192	-8191	8192	8192	254	
77052.344	1	1	0	0	937.485	983.707	919.56	3.56158	777.211	386.148	111.893	1074.35	1438.71	1635.52	1439.14	55.9231	1134.61	634.144	247.447	1994.41	24.780	212.426	22.467	207.103	199.694	201.954	205.447	199.221	8192	-8191	8192	8192	254	
77052.344	1	1	0	0	989.556	965.794	889.664	1.57271	747.024	382.046	118.973	1093.21	1471.11	1626.86	1400.68	59.3606	1136.32	642.312	250.255	1998.93	23.666	210.421	20.805	281.167	197.631	205.016	204.495	198.690	8192	-8191	8192	8192	254	
77052.391	1	1	0	0	957.54	1000.81	900.849	9.34236	748.529	360.56	114.711	1124.96	1474.27	1657.79	1421.16	72.6346	1147.71	635.438	269.284	1987.4	25.088	213.015	23.166	221.922	198.104	200.177	211.587	198.004	8192	-8191	8192	8192	254	
77052.438	1	1	0	0	928.545	1007.84	911.332	1.41472	783.785	352.488	113.412	1155.21	1434.29	1645.66	1421.92	50.1923	1149.53	612.529	242.587	2003.66	23.958	213.484	22.194	285.921	199.958	202.119	207.418	199.960	8192	-8191	8192	8192	254	
77052.484	1	1	0	0	965.621	986.999	904.3	10.5625	727.669	366.794	118.174	1134.77	1450.7	1634	1390.08	49.5817	1110.44	609.875	235.966	1996.23	23.016	212.813	21.230	209.491	200.024	205.564	202.436	198.380	8192	-8191	8192	8192	254	
77052.555	1	1	4	0	957.349	965.06	895.043	1.71953	784.32	401.664	117.355	1126.73	1435.14	1608.93	1403.8	51.7212	1154.64	632.308	241.178	1977.45	22.565	213.826	20.706	316.248	197.297	206.027	197.229	198.851	8192	-8191	8192	8192	254	
77052.609	1	1	0	0	925.676	1017.25	862.979	4.4398	749.178	378.732	107.26	1118.16	1422.3	1638.37	1373.76	46.6635	1134.23	627.087	235.952	1997.23	23.450	212.095	20.859	190.171	198.808	204.043	206.007	200.567	8192	-8191	8192	8192	254	
77052.656	1	1	0	0	963.931	1008.68	878.682	1.56882	777.507	368.698	119.142	1152.32	1450.68	1642.17	1407.87	60.3702	1177.99	649.337	276.438	2050.43	24.047	212.845	19.941	98.494	197.720	201.093	208.548	198.941	8192	-8191	8192	8192	254	
77052.703	1	1	0	0	955.219	986.566	892.977	8.55659	760.865	352.993	123.141	1131.68	1495.21	1674.29	1448.97	97.7115	1196.52	681.183	298.74	2038.71	23.620	213.687	23.403	227.884	198.625	202.734	202.731	198.647	8192	-8191	8192	8192	254	
77052.750	1	1	0	0	964.445	992.81	912.77	7.46025	760.146	358.772	111.946	1119.39	1519.05	1680.86	1459	115.087	1193.71	693.875	298.317	2014.35	24.462	210.607	21.596	249.932	198.866	201.709	205.473	197.146	8192	-8191	8192	8192	254	
77052.797	1	1	0	0	962.45	999.159	905.067	7.90099	754.324	382.251	121.965	1079.4	1507.3	1679.75	1473.57	101.712	1199.76	688.889	305.202	2030.54	23.255	213.565	23.925	104.994	199.601	202.611	214.417	198.632	8192	-8191	8192	8192	254	
77052.867	1	1	0	0	967.064	1007.78	893.36	7.14852	782.239	363.521	113.929	1104.44	1520.79	1694.34	1467.13	108.673	1205.93	692.716	293.24	2030.6	23.852	211.244	20.524	179.693	197.426	202.600	204.907	200.949	8192	-8191	8192	8192	254	
77052.922	1	1	0	0	967.442	964.795	905.758	6.73996	734.388	397.788	103.168	1106.92	1525.41	1694.7	1472.01	106.904	1195.1	682.245	303.697	2044.08	23.068	213.277	22.470	147.060	199.480	203.643	207.279	198.648	8192	-8191	8192	8192	254	
77052.969	1	1	0	0	947.608	984.354	925.023	4.34617	772.746	397.132	103.959	1127.71	1480.42	1703.76	1464.6	112.553	1210.8	700.375	300.812	2058.54	25.755	213.039	21.747	220.274	198.196	202.318	210.194	198.309	8192	-8191	8192	8192	254	
77053.016	1	1	0	0	955.579	978.953	873.538	5.28147	772.595	362.098	111.229	1154.49	1504.8	1687.88	1460.06	111.572	1217.44	695.216	307.351	2057.16	23.021	213.423	23.810	202.743	199.794	202.753	207.426	198.540	8192	-8191	8192	8192	254	
77053.062	1	1	0	0	940.678	993.525	903.834	7.8182	793.027	376.838	102.336	1113.79	1497.4	1702.32	1469.65	114.788	1222.16	697.76	302.096	2047.92	24.143	213.923	21.774	227.773	198.544	199.857	199.442	198.319	8192	-8191	8192	8192	254	
77053.109	1	1	0	0	953.501	974.321	892.784	9.72324	761.715	352.181	121.909	1156.46	1529.88	1682.67	1480.99	125.13	1211.39	704.745	324.659	2077.99	24.460	211.622	22.030	192.307	198.374	200.169	197.262	196.428	8192	-8191	8192	8192	254	
77053.109	1	1	0	0	995.403	996.971	907.806	1.59341	778.308	375.357	121.743	1113.16	1531.17	1707.62	1502.46	134.12	1238.31	714.423	337.601	2074.13	24.074	212.643	21.636	284.153	199.600	198.726	212.672	198.060	8192	-8191	8192	8192	254	
77053.156	1	1	0	0	969.357	971.744	924.287	5.29937	766.761	373.613	124.66	1079.18	1557.04	1723.47	1544.23	165.548	1247.54	740.221	352.173	2075.76	23.032	212.774	22.923	239.771	199.896	200.163	206.500	197.994	8192	-8191	8192	8192	254	
77053.234	1	1	0	0	939.496	986.18	907.174	11.9462	749.598	360.53	116.643	1183.06	1539.59	1719.35	1476.22	113.928	1186.37	664.822	297.697	2069.16	22.345	212.652	22.339	272.797	197.531	198.262	206.526	199.062	8192	-8191	8192	8192	254	
77053.281	1	1	0	0	954.959	1005.7	889.807	8.58089	733.726	382.208	120.361	1065.16	1499.05	1669.31	1449.55	96.9375	1189.64	693.279	294.745	2014.88	23.271	209.418	23.817	134.394	198.136	203.592	199.290	197.739	8192	-8191	8192	8192	254	
77053.328	1	1	0	0	971.511	990.036	902.828	0.276082	772.323	390.16	116.571	1102.42	1511.68	1681.06	1455.84	99.9279	1209.43	696.014	298.135	2037.94	23.991	214.499	22.801	35.294	199.192	200.299	202.924	197.999	8192	-8191	8192	8192	254	
77053.375	1	1	0	0	974.693	1001.73	886.072	7.43112	769.579	375.838	129.314	1112.21	1510.4	1698.25	1443.7	103.529	1209.66	698.192	301.88	2051.57	23.120	211.512	21.753	66.873	199.484	199.710	215.385	199.127	8192	-8191	8192	8192	254	
77053.422	1	1	0	0	952.966	980.651	896.091	10.1377	735.906	376.433	109.584	1161.73	1504.1	1711.34	1448.21	113.01	1201.14	689.995	308.899	2059.88	23.181	210.645	21.661	181.315	197.572	202.481	207.391	198.065	8192	-8191	8192	8192	254	
77053.469	1	1	0	0	954.564	999.859	887.34	4.15352	779.934	384.214	114.136	1117.73	1516	1696.25	1453.9	111.889	1213.24	694.144	303.827	2048.82	23.154	212.802	21.482	302.074	198.454	203.400	199.982	196.606	8192	-8191	8192	8192	254	
77053.516	1	1	0	0	957.34	972.265	907.036	7.93718	779.646	376.355	117.804	1105.52	1509.39	1681.66	1475.01	113.361	1221.23	694.091	305.51	2037.96	24.132	212.598	22.448	175.449	197.312	198.780	205.515	199.563	8192	-8191	8192	8192	254	
77053.562	1	1	0	0	934.15	967.906	913.768	2.53285	763.332	372.379	114.612	1132.28	1486.07	1683.17	1476.66	116.163	1191.46	683.774	295.418	2045.99	22.756	212.799	22.418	197.083	197.640	203.238	203.380	196.601	8192	-8191	8192	8192	254	
77053.617	1	1	0	0	929.219	963.243	892.985	7.73925	745.304	368.492	119.661	1138.95	1494.35	1695.7	1467.82	114.822	1201.57	693.188	319.24	2065.08	23.066	211.411	21.620	133.671	197.199	206.259	210.844	197.545	8192	-8191	8192	8192	254	
77053.664	1	1	0	0	966.776	983.225	924.943	13.137	739.861	359.795	110.375	1140.61	1552.44	1691.02	1483.34	141.433	1234.02	707.712	340.014	2106.54	21.946	212.608	23.095	213.755	197.764	201.288	207.350	198.273	8192	-8191	8192	8192	254	
77053.734	1	1	0	0	920.333	992.69	907.32	14.994	769.903	379.713	113.846	1132.19	1529.12	1740.62	1507.56	165.106	1273.78	730.298	348.928	2122.79	24.084	213.297	21.959	159.762	198.329	200.612	202.838	201.111	8192	-8191	8192	8192	254	
77053.781	1	1	0	0	974.076	964.846	951.433	7.16433	748.457	370.48	113.693	1157.62	1585.65	1748.37	1559.6	201.861	1296.1	791.731	418.038	2137.1	24.904	211.544	23.095	142.222	197.150	203.038	206.395	198.221	8192	-8191	8192	8192	254	
77053.828	1	1	0	0	964.188	962.607	909.102	7.50903	766.863	356.206	107.986	1118.98	1629.85	1796.25	1620.08	267.399	1388.17	852.13	485.87	2246.82	23.571	211.893	23.051	308.573	198.692	205.598	205.133	198.261	8192	-8191	8192	8192	254	
77053.875	1	1	0	0	945.634	953.509	883.843	10.6052	779.637	350.576	109.752	1133.26	1729.38	1884.01	1676.7	339	1433.13	932.312	554.25	2299.29	23.530	213.202	21.542	226.822	195.278	200.543	207.147	198.098	8192	-8191	8192	8192	254	
77053.875	1	1	0	0	965.314	996.54	891.45	15.1937	778.107	352.935	118.447	1160.64	1774.35	1983.24	1712.82	363.639	1487.21	951.053	561.688	2340.12	23.770	211.109	23.238	166.422	197.988	200.567	207.375	196.603	8192	-8191	8192	8192	254	
77053.930	1	1	0	0	961.159	947.291	874.856	3.96124	777.821	355.992	105.47	1094.6	1786.3	1958.7	1705.1	392.053	1483.36	952.024	576.798	2315.3	24.990	211.775	20.814	41.006	198.983	202.237	206.650	199.670	8192	-8191	8192	8192	254	
77054.000	1	1	0	0	913.973	993.887	895.05	21.3756	778.844	392.096	133.813	1090.17	1770.15	1946.49	1726.9	369.591	1458.05	968.841	556.981	2282.11	25.171	210.990	22.348	315.102	199.689	202.646	208.353	198.824	8192	-8191	8192	8192	254	
77054.047	1	1	0	0	975.137	1001.59	903.376	6.21715	768.554	356.069	134.361	1088.37	1776.28	1961.17	1737.45	360.649	1471.69	965.389	562.087	2261.99	24.707	212.141	23.005	346.763	199.558	202.194	206.687	198.869	8192	-8191	8192	8192	254	
77054.094	1	1	0	0	925.01	978.527	885.697	7.65126	736.35	379.774	133.414	1149.73	1738.81	1970.56	1704.17	376.76	1444.57	957.808	566.308	2353.7	24.086	213.856	23.511	161.966	197.026	202.864	208.928	198.191	8192	-8191	8192	8192	254	
77054.141	1	1	0	0	947.447	1015.11	931.288	10.8727	785.194	396.239	106.988	1122.63	1776.2	1978.19	1778.58	368.923	1462.58	968.452	546.409	2276.22	24.634	211.145	23.594	192.914	198.190	199.592	201.723	200.066	8192	-8191	8192	8192	254	
77054.188	1	1	0	0	973.783	989.988	878.252	17.0016	719.125	370.289	113.716	1099.55	1723.91	1927	1650.6	337.841	1420.17	923.971	534.438	2285.02	22.172	213.032	20.765	249.572	197.930	197.887	206.298	198.448	8192	-8191	8192	8192	254	
77054.234	1	1	0	0	945.832	957.081	850.867	14.1602	562.296	232.352	70.1288	377.976	1727.44	1887.91	1617.76	342.154	1134.74	660.971	351.245	888.269	22.774	212.463	21.761	106.529	198.474	205.699	205.957	198.014	8192	-8191	8192	8192	254	
77054.289	1	1	0	0	154.363	106.608	103.698	1.50615	46.8641	19.8684	8.31671	63.6881	467.841	374.207	331.317	199.683	285.264	242.433	216.558	332.644	20.777	211.620	18.687	193.089	197.784	212.748	274.285	197.604	8192	-8191	8192	8192	254	
77054.336	1	1	0	0	38.7121	35.2607	49.2853	10.0622	42.0498	32.9368	1.07503	47.7686	252.966	258.178	256.423	198.409	258.894	228.673	199.245	272.712	26.734	211.359	21.752	167.189	204.391	192.317	217.348	186.319	8192	-8191	8192	8192	254	
77054.406	1	1	0	0	19.3607	7.72029	8.90234	3.8688	13.9398	15.4324	23.6433	122.064	212.832	204.072	198.26	192.611	195.562	273.077	1228.55	6666.58	0.214	131.652	30.108	272.662	254.612	76.409	158.180	113.698	8192	-8191	8192	8192	254	
77054.453	1	1	0	0	30.5587	141.353	137.696	54.1674	70.5455	76.8128	160.893	114.591	13190.6	20167	20684	19136.1	20089.3	21865.7	23508	22586.1	345.792	59.099	213.925	270.796	101.785	45.800	227.467	299.003	8192	-8191	8192	8192	254	
77054.500	1	1	0	65536	92.8624	160.726	90.3032	117.715	125.077	81.6074	130.806	66.3053	22281.2	23524.9	23698.6	23611.3	24162.7	24780.8	24985.8	27646.6	317.731	199.975	193.468	268.532	90.651	238.246	218.998	50.914	8192	-8191	8192	8192	254	
77054.555	1	1	0	65536	34.3875	26.1352	0.972849	2.83019	7.08773	0	0	0	30597.6	32386.7	32766.4	32764.4	32758.7	32767	32767	32767	240.660	38.449	310.992	338.716	280.882	180.000	180.000	180.000	8192	-8191	8192	8192	254	
77054.602	1	1	0	65536	0	0	33.7578	130.397	132.09	118.591	22.9578	11.6113	32767	32767	32685.1	32006.5	30911.1	30763.4	32659.7	32747	180.000	180.000	347.929	310.959	104.803	228.177	58.514	62.502	8192	-8191	8192	8192	254	
77054.648	1	1	0	65536	4.77865	111.228	73.9914	126.982	70.456	111.46	79.8006	118.067	32764.5	31835.9	26051.1	25877.1	24339.9	20236.2	15035	10177.6	179.185	224.798	260.098	94.232	310.566	351.732	329.200	305.616	8192	-8191	8192	8192	254	
77054.648	1	1	0	0	85.6182	19.4933	22.0311	5.66896	20.7906	29.9153	8.73897	4.22903	4302.42	2104.73	1176.59	1202.12	1344.58	1539.29	1587.84	1668.38	261.568	187.948	302.058	260.736	90.455	321.707	98.145	300.771	8192	-8191	8192	8192	254	
77054.695	1	1	0	0	39.1159	42.3081	30.0596	23.483	50.1722	19.4746	30.1098	38.3825	1618.92	1584.44	1617.56	1651.85	1617.57	1676.25	1705.41	1716.28	249.131	245.114	15.265	161.577	245.095	135.271	45.532	153.537	8192	-8191	8192	8192	254	
77054.766	1	1	0	0	10.1791	33.1041	30.7992	16.8238	26.3865	10.3192	10.304	18.6088	1715.81	1736.39	1747.41	1735.19	1716.77	1745.84	1744.55	1793.31	236.839	136.419	195.516	250.868	88.570	154.910	118.715	245.122	8192	-8191	8192	8192	254	
77054.812	1	1	0	0	34.6575	9.46662	22.9848	25.1986	19.1697	45.3933	23.1671	20.7421	1845.95	1837.15	1861.56	1926.62	1876.97	1773.91	1861.26	1986.09	196.781	168.126	286.716	240.561	249.614	319.243	128.193	326.268	8192	-8191	8192	8192	254	
77054.859	1	1	0	0	24.5316	156.589	8.72687	54.7935	9.01193	30.6832	43.8209	53.1114	2142.51	7941.48	10717.3	8249.64	6152.17	4814.24	4072.83	3970.94	263.984	121.766	30.003	305.448	245.787	158.632	18.770	19.650	8192	-8191	8192	8192	254	
77054.914	1	1	0	0	3.59001	38.2016	27.2826	9.16919	12.0736	36.7754	26.5018	30.8577	4001.37	4103.01	4424.78	4747.68	4987.29	5059.03	5017.76	4769.02	30.694	288.949	217.833	146.346	164.011	26.024	155.034	201.581	8192	-8191	8192	8192	254	
77054.961	1	1	0	0	28.8183	15.9824	16.6439	24.7975	12.6639	18.6009	14.0885	4.07789	4021.16	2891.55	1792.28	1122.53	776.548	578.255	468.543	388.457	35.036	331.840	66.274	207.797	271.438	216.449	51.375	52.315	8192	-8191	8192	8192	254	
77055.008	1	1	0	0	10.7763	5.88978	6.65097	9.71051	6.8233	10.7457	8.08759	3.09631	343.601	280.639	258.62	247.736	226.019	221.486	208.385	205.365	247.964	77.294	75.192	25.368	167.002	154.471	160.448	129.575	8192	-8191	8192	8192	254	
77055.055	1	1	0	0	6.59897	1.39188	6.12717	13.7222	3.26114	5.75969	1.50683	6.64321	195.952	187.505	167.663	170.255	165.558	166.168	166.293	156.115	259.440	298.396	275.290	120.322	307.984	210.541	357.531	300.835	8192	-8191	8192	8192	254	
77055.102	1	1	0	0	4.22017	12.0022	6.16016	6.8894	9.3201	10.593	12.3327	31.2057	168.452	161.976	163.12	161.087	166.433	169.385	169.683	248.683	85.198	92.279	263.942	165.256	330.231	348.633	113.439	191.710	8192	-8191	8192	8192	254	
77055.148	1	1	0	0	51.0029	134.55	192.265	10.5067	218.225	113.696	33.9916	321.9	321.601	541.409	737.99	486.192	805.827	651.875	558.793	1042.35	48.302	213.678	25.209	320.685	198.692	205.727	216.985	206.979	8192	-8191	8192	8192	254	
77055.195	1	1	0	0	256.046	260.272	212.768	15.0143	203.194	121.623	34.7417	298.045	876.389	908.49	864.558	515.236	804.49	681.952	567.596	1044.55	26.231	217.707	30.359	104.922	205.645	217.353	237.953	204.027	8192	-8191	8192	8192	254	
77055.273	1	1	0	0	232.874	251.057	230.18	5.2214	199.15	104.99	28.8589	307.528	889.49	928.51	889.062	533.442	808.144	702.933	601.115	1110.6	28.668	216.004	27.745	109.444	203.559	188.269	224.963	207.926	8192	-8191	8192	8192	254	
77055.320	1	1	0	0	238.445	246.104	233.378	24.4806	193.852	92.418	35.0636	315.199	900.596	949.322	892.106	551.74	831.529	708.25	589.312	1098.09	28.951	217.823	30.428	209.019	206.100	201.153	232.506	207.087	8192	-8191	8192	8192	254	
77055.367	1	1	0	0	244.147	246.641	247.707	20.8343	211.353	107.39	37.7947	344.83	923.447	943.072	891.885	527.817	838.784	697.423	580.558	1063.08	28.482	213.365	29.991	10.348	210.290	203.413	202.603	201.141	8192	-8191	8192	8192	254	
77055.414	1	1	0	0	260.438	277.653	230.639	17.3448	217.558	93.1492	42.182	334.97	868.889	924.861	821.591	471.837	753.428	618.144	482.01	994.538	26.343	213.180	29.014	256.954	208.916	203.875	217.427	202.009	8192	-8191	8192	8192	254	
77055.414	1	1	0	0	262.879	283.274	256.175	10.7373	208.384	109.733	37.0243	309.187	781.135	803.822	737.986	348.938	638.115	482.88	365.938	822.245	27.712	214.980	24.818	241.613	204.203	206.414	215.586	199.812	8192	-8191	8192	8192	254	
77055.461	1	1	0	0	260.239	262.968	232.476	8.26539	202.778	89.9791	35.5486	304.051	635.192	665.635	606.317	240.841	504.212	373.01	257.236	731.096	30.159	217.199	25.029	347.439	198.797	201.693	213.923	201.227	8192	-8191	8192	8192	254	
77055.508	1	1	0	0	223.213	247.283	199.501	9.19528	197.263	105.462	33.5305	282.595	519.327	587.014	483.663	176.668	440.822	310.534	206.534	667.144	30.589	215.899	20.983	277.752	206.140	205.034	222.250	202.195	8192	-8191	8192	8192	254	
77055.562	1	1	0	0	227.135	232.396	208.485	9.00415	207.245	88.3091	28.2982	297.061	480.159	513.111	461.385	140.154	415.067	288.731	176.721	625.139	34.091	217.992	28.455	225.531	204.971	213.513	217.504	203.388	8192	-8191	8192	8192	254	
77055.633	1	1	0	0	222.178	227.068	196.886	11.8213	185.719	96.5626	39.1968	302.829	440.428	472.923	430.226	112.062	391.418	261.702	166.053	616.284	27.872	220.564	29.197	218.542	205.487	204.585	204.234	205.849	8192	-8191	8192	8192	254	
77055.680	1	1	0	0	227.039	243.641	215.818	3.11899	180.324	93.082	42.5323	285.764	437.524	485.913	420.284	107.197	382.111	262.279	162.082	625.635	32.941	215.712	30.981	164.241	207.260	209.104	205.914	203.313	8192	-8191	8192	8192	254	
77055.727	1	1	0	0	217.587	224.058	199.328	4.38688	185.448	98.7058	29.7652	279.201	442.553	478.471	438.101	115.582	387.615	262.327	171.447	608.587	30.403	217.927	29.041	147.880	207.617	205.853	204.366	199.624	8192	-8191	8192	8192	254	
77055.773	1	1	0	0	229.143	232.958	217.936	6.53843	184.626	100.03	44.7394	286.202	442.962	479.875	446.188	113.663	392.351	266.365	174.909	624.197	27.334	218.025	24.545	224.258	205.284	208.163	219.662	202.406	8192	-8191	8192	8192	254	
77055.820	1	1	0	0	226.038	227.946	213.939	11.9236	198.024	93.2647	39.2055	283.659	440.769	493.5	441.952	114.486	386.438	267.856	179.365	616.793	33.394	218.012	28.687	226.329	202.710	204.295	207.761	206.242	8192	-8191	8192	8192	254	
77055.867	1	1	0	0	231.55	242.097	223.782	3.22609	179.393	91.4204	29.2179	296.72	449.505	508.889	448.447	114.971	380.043	275.644	166.014	630.01	25.111	215.292	30.032	53.841	207.396	214.710	220.293	203.933	8192	-8191	8192	8192	254	
77055.922	1	1	0	0	242.219	229.443	207.149	11.2304	194.902	99.7757	26.324	299.417	456.341	480.375	438.37	126.019	386.274	267.043	173.62	625.784	34.728	219.213	27.302	292.356	201.016	214.744	193.774	206.695	8192	-8191	8192	8192	254	
77055.969	1	1	0	0	237.207	224.96	215.699	3.4	164.562	94.3949	28.0619	299.875	462.649	481.832	454.091	124.481	374.462	265.361	165.519	615.87	31.241	220.631	30.840	39.721	201.905	203.103	216.916	199.377	8192	-8191	8192	8192	254	
77056.039	1	1	0	0	221.161	229.427	214.212	8.88554	180.463	97.3676	35.4052	284.706	447.37	489.562	434.423	122.683	403.168	250.303	160.88	619.428	32.399	218.585	29.871	119.545	205.770	208.408	218.724	203.194	8192	-8191	8192	8192	254	
77056.086	1	1	0	0	211.562	231.677	218.997	4.81258	201.916	89.5138	25.369	271.762	445.413	478.202	437.611	123.591	391.894	264.591	164.548	605.856	27.101	221.517	23.419	70.011	202.914	207.811	214.372	207.477	8192	-8191	8192	8192	254	
77056.133	1	1	0	0	219.048	227.981	211.116	2.71524	199.942	93.8108	25.2105	303.956	451.438	486.582	440.404	115.938	381.99	259.933	163.543	622.212	27.455	222.927	31.376	256.542	205.208	204.285	207.428	202.237	8192	-8191	8192	8192	254	
77056.180	1	1	0	0	240.856	211.12	212.872	2.34961	171.92	102.603	31.0584	276.892	440.663	475.904	435.216	123.442	378.005	262.562	163.043	618.553	31.963	220.114	30.677	48.999	204.310	216.634	191.655	206.277	8192	-8191	8192	8192	254	
77056.180	1	1	0	0	210.987	231.317	208.196	8.01367	197.642	90.1656	45.6368	280.235	445.389	481.409	424.202	118.668	393.668	262.606	172.529	618.933	27.219	216.937	29.211	206.230	207.114	211.843	201.686	205.940	8192	-8191	8192	8192	254	
77056.227	1	1	0	0	237.083	233.505	213.527	2.63137	199.51	87.6958	30.284	298.288	466.654	491.692	445.476	119.702	408.034	268.697	167.486	617.264	28.264	213.669	25.161	213.166	205.280	209.726	200.185	203.609	8192	-8191	8192	8192	254	
77056.305	1	1	0	0	208.002	231.047	218.034	5.95137	200.098	108.112	19.4602	285.08	444.192	487.312	452.255	120.591	397.793	265.529	169.779	619.375	32.602	216.331	29.244	173.114	203.545	203.764	216.029	197.553	8192	-8191	8192	8192	254	
77056.352	1	1	0	0	235.767	219.143	203.179	0.968794	177.253	83.3978	31.0714	294.284	459.865	482.207	438.399	117.341	382.312	267.159	160.582	609.255	26.504	216.022	23.974	220.799	206.065	209.431	211.053	208.377	8192	-8191	8192	8192	254	
77056.398	1	1	0	0	249.958	226.924	222.472	4.43717	186.345	104.112	30.5553	295.536	463.721	486.005	437.087	116.101	391.413	277.337	171.832	607.726	27.273	219.179	29.030	170.200	203.488	205.347	208.376	207.406	8192	-8191	8192	8192	254	
77056.445	1	1	0	0	223.788	239.628	241.165	6.84824	185.243	99.5709	23.0435	289.235	438.543	484.668	443.111	118.361	383.774	264.048	170.822	610.856	30.103	217.152	28.370	27.929	207.863	210.093	205.337	205.905	8192	-8191	8192	8192	254	
77056.492	1	1	0	0	235.98	231.103	226.296	5.67065	207.949	97.1589	28.2566	275.54	441.861	481.524	442.106	112.144	380.514	254.12	161.202	608.356	28.197	220.870	28.422	4.567	206.803	200.496	226.401	202.723	8192	-8191	8192	8192	254	
77056.547	1	1	0	0	217.718	222.844	219.327	5.23748	177.005	100.489	34.8267	284.177	442.726	469.245	448.519	111.846	372.986	262.726	169.207	608.74	30.797	216.341	25.231	337.242	202.000	206.553	193.855	202.619	8192	-8191	8192	8192	254	
77056.594	1	1	0	0	223.827	231.729	181.648	0.976943	180.272	105.216	22.7167	285.705	440.524	481.74	427.312	113.438	378.798	256.438	153.514	613.99	30.120	218.503	27.208	75.383	207.076	205.773	200.512	203.308	8192	-8191	8192	8192	254	
77056.641	1	1	0	0	226.595	227.812	217.117	4.176	190.351	94.5321	22.8207	281.213	428.534	472.317	431.264	107.649	369.231	258.346	164.332	601.471	30.699	220.344	29.328	263.582	201.820	202.263	197.785	201.237	8192	-8191	8192	8192	254	
77056.711	1	1	0	0	230.531	229.227	213.136	6.11485	191.921	100.668	28.0918	292.526	441.514	467.986	425.577	107.106	388.688	270.212	156.38	595.356	28.230	218.355	27.891	56.656	202.548	211.548	211.448	204.519	8192	-8191	8192	8192	254	
77056.758	1	1	0	0	236.306	226.696	230.052	7.59778	192.196	79.1564	33.6281	290.275	441.986	457.308	432.043	109.942	391.803	254.38	164.37	604.986	26.974	218.753	28.247	357.549	202.841	203.872	198.550	201.905	8192	-8191	8192	8192	254	
77056.805	1	1	0	0	239.037	208.39	222.643	13.2343	202.211	93.5659	35.899	293.07	455.942	478.49	445.115	117.019	388.812	257.192	159.808	605.913	29.546	218.925	26.270	287.774	207.764	209.542	204.582	203.761	8192	-8191	8192	8192	254	
77056.852	1	1	0	0	221.845	229.908	199.451	5.0741	196.565	102.345	31.7476	286.973	439.495	474.625	421.356	114.043	382.567	269.505	158.846	613.923	29.589	210.209	27.499	0.260	205.025	201.996	200.282	208.384	8192	-8191	8192	8192	254	
77056.898	1	1	0	0	229.428	226.971	209.833	2.36758	184.906	91.8828	28.4965	271.69	446.043	483.611	437.663	117.418	380.183	261.091	163.962	616.639	28.317	219.730	28.923	228.621	201.620	209.021	208.417	205.173	8192	-8191	8192	8192	254	
77056.953	1	1	0	0	231.683	232.459	231.13	3.53727	196.595	92.8712	26.0641	289.431	438.394	477.216	432.389	113.264	383.784	262.457	165.077	612.019	30.413	218.394	27.019	152.380	204.925	205.570	214.513	204.042	8192	-8191	8192	8192	254	
77056.953	1	1	0	0	233.014	209.559	204.915	3.22041	185.477	101.476	31.1536	292.203	441.591	465.904	415.837	110.548	381.702	258.13	164.779	617.841	30.372	223.452	32.008	328.256	198.652	207.834	215.091	201.588	8192	-8191	8192	8192	254	
77057.000	1	1	0	0	219.77	211.348	204.759	1.02816	181.463	76.0668	21.407	278.799	441.995	466.284	430.005	101.649	377.851	249.933	154.769	615.846	26.563	222.333	27.472	285.060	205.098	207.281	188.191	205.010	8192	-8191	8192	8192	254	
77057.047	1	1	5	0	222.15	220.83	193.162	3.65041	193.368	99.9124	33.5153	271.372	440.365	474.755	415.409	106.389	378.938	250.986	155.288	576.764	33.186	221.165	27.951	208.048	203.667	205.389	202.004	202.279	8192	-8191	8192	8192	254	
77057.094	1	1	0	0	215.34	204.549	210.448	0.401298	174.286	101.689	30.7871	287.093	419.692	439.188	390.341	71.8798	324.688	198.404	104.856	552.12	28.467	220.158	28.744	331.812	204.479	204.664	200.552	204.233	8192	-8191	8192	8192	254	
77057.164	1	1	0	0	223.772	214.604	207.023	2.6268	201.865	97.9227	27.8034	282.772	383.822	408.928	367.572	46.6394	321.519	191.822	87.1106	539.221	29.170	220.305	27.540	286.795	206.699	205.431	223.482	200.935	8192	-8191	8192	8192	254	
77057.211	1	1	0	0	228.557	227.256	224.751	3.31008	168.79	91.7251	30.4454	315.932	383.957	407.615	367.38	46.5721	305.226	191.019	90.5096	545.005	27.812	218.236	26.499	20.463	204.100	202.966	213.095	204.720	8192	-8191	8192	8192	254	
77057.266	1	1	0	0	225.199	224.307	204.114	2.65418	202.825	96.1991	26.8938	276.923	373.139	403.293	356.731	45.8462	314.822	193.5	89.774	551.75	31.851	216.250	26.629	194.507	204.035	208.854	211.314	204.484	8192	-8191	8192	8192	254	
77057.312	1	1	0	0	224.225	210.605	222.789	0.784092	197.939	101.208	28.4186	280.919	371.567	401.077	371.817	43.6779	322.082	203.524	101.591	543.231	30.688	218.193	26.168	305.512	206.578	206.462	215.421	202.525	8192	-8191	8192	8192	254	
77057.359	1	1	0	0	220.881	229.774	219.877	9.51019	183.274	91.0164	34.5428	279.667	392.88	425.293	392.361	73.3654	338.014	226.832	141.543	582.303	29.184	221.659	28.095	216.597	201.447	212.623	208.181	201.590	8192	-8191	8192	8192	254	
77057.406	1	1	0	0	222.537	202.428	213.409	3.31266	184.791	93.1188	23.5986	291.732	425.875	455.365	424.851	97.6779	366.553	246.385	155.716	618.087	29.946	219.394	24.704	122.040	204.687	208.429	198.124	207.191	8192	-8191	8192	8192	254	
77057.477	1	1	0	0	238.431	246.715	223.944	7.77841	178.492	91.4462	36.9584	291.443	429.106	472.159	418.135	95.8365	358.25	239.168	147.957	597.779	30.071	217.907	25.306	192.993	204.556	214.167	211.905	203.317	8192	-8191	8192	8192	254	
77057.523	1	1	0	0	220.896	227.891	221.439	5.07904	196.797	100.179	25.9119	286.135	421.212	457.005	418.481	87.4808	370.077	245.721	149.827	587.567	29.510	217.555	29.555	42.466	204.662	207.674	205.872	203.249	8192	-8191	8192	8192	254	
77057.570	1	1	0	0	234.106	221.43	214.204	3.67717	190.858	92.6439	26.8352	270.302	424.519	444.505	400.678	89.0769	361.024	234.736	136.678	578.938	31.604	217.877	28.195	48.292	202.661	216.320	203.211	206.275	8192	-8191	8192	8192	254	
77057.625	1	1	0	0	236.676	240.57	205.973	2.86199	190.143	82.9598	22.8604	280.986	428.769	450.803	390.221	82.6635	345.404	226.803	131.486	582.038	25.555	218.015	27.114	299.203	204.509	212.122	212.306	202.046	8192	-8191	8192	8192	254	
77057.672	1	1	0	0	226.271	217.923	227.496	4.99331	175.811	104.074	41.0626	292.167	410.413	434.274	401.168	78.9087	349.236	242.827	130.707	573.832	29.683	215.933	28.090	22.072	206.243	204.050	204.398	206.619	8192	-8191	8192	8192	254	
77057.719	1	1	0	0	209.723	232.672	207.523	9.51703	176.15	93.5345	35.3057	282.826	412.856	444.808	405.317	76.4279	345.13	229.168	130.221	590.99	28.139	221.707	27.925	336.342	206.750	203.263	186.727	202.456	8192	-8191	8192	8192	254	
77057.719	1	1	0	0	231.058	218.013	205.609	4.43735	184.801	91.6197	32.1615	299.217	405.899	439.572	390.505	84.0096	343.962	224.812	126.13	578.865	28.585	215.456	29.804	66.582	206.983	208.856	207.166	201.966	8192	-8191	8192	8192	254	
77057.766	1	1	0	0	227.921	225.003	220.884	9.35849	207.76	94.3405	34.0356	302.127	406.337	436.562	395.245	80.0192	355.731	207.043	127.375	569.389	27.988	218.479	28.531	176.783	199.512	205.384	205.352	202.760	8192	-8191	8192	8192	254	
77057.836	1	1	0	0	232.887	224.802	212.337	5.62326	185.157	87.5237	30.1377	284.566	396.308	427.255	381.245	69.8702	327.827	209.529	120.697	566.538	32.217	218.302	30.487	166.976	205.221	210.537	217.319	205.988	8192	-8191	8192	8192	254	
77057.883	1	1	0	0	229.546	216.576	203.291	5.47488	188.592	88.2876	33.1633	286.383	394.091	410.168	371.553	56.8221	313.351	202.673	103.716	563.019	25.801	215.569	27.361	182.538	202.600	211.703	214.332	202.755	8192	-8191	8192	8192	254	
77057.938	1	1	0	0	235.1	232.279	218.776	5.61936	192.428	93.9848	34.8759	278.361	389	419.971	368.351	50.9087	329.841	197.183	105.837	548.125	29.350	217.476	28.939	173.080	203.752	206.028	200.906	203.689	8192	-8191	8192	8192	254	
77057.984	1	1	0	0	220.611	220.021	215.626	3.67566	188.484	93.0801	32.0933	286.806	368.192	423.01	368.957	47.1731	326.106	202.255	97.8029	547.995	29.344	223.455	28.109	26.804	203.813	203.334	207.262	204.751	8192	-8191	8192	8192	254	
77058.031	1	1	0	0	225.262	231.116	210.425	2.94046	189.042	105.134	28.8468	307.354	382.856	418.245	374.438	47.6106	316.457	198.981	102.351	548.269	31.105	218.369	27.132	214.710	207.153	209.874	208.634	208.001	8192	-8191	8192	8192	254	
77058.078	1	1	0	0	227.695	233.982	204.506	4.7275	176.007	94.9489	31.2808	293.128	386.014	413.803	366.712	51.2163	315.644	205.034	107.481	541.37	26.900	222.198	26.459	210.137	206.551	204.036	199.950	205.465	8192	-8191	8192	8192	254	
77058.125	1	1	0	0	213.164	229.245	216.313	2.79508	198.364	95.2597	31.5725	271.468	369.375	414.428	372.909	51.4808	324.144	204.024	105.144	552.212	30.053	219.146	26.318	343.209	198.396	204.597	204.376	200.907	8192	-8191	8192	8192	254	
77058.172	1	1	0	0	213.688	235.196	201.611	8.76868	192.497	84.3773	24.7434	296.889	388.404	430.793	367.356	54.9663	330.875	201.966	108.644	566.404	29.819	217.637	27.171	250.952	197.314	209.799	205.546	206.654	8192	-8191	8192	8192	254	
77058.242	1	1	0	0	227.254	216.9	198.886	5.46042	200.804	103.837	27.6688	277.343	376.394	426.327	366.486	62.7692	337.582	212.38	110.639	559.159	32.588	221.939	24.377	103.908	205.641	208.459	200.611	207.067	8192	-8191	8192	8192	254	
77058.297	1	1	0	0	234.492	240.132	193.167	1.40068	190.353	96.4964	24.7215	310.14	390.697	444.293	377.942	63.3462	328.663	210.779	113.822	586.712	29.142	218.736	22.488	4.374	202.099	209.896	216.203	206.948	8192	-8191	8192	8192	254	
77058.344	1	1	0	0	238.749	233.501	215.258	7.08919	190.701	91.0975	33.936	300.17	391.529	431.582	367.88	54.4279	333.74	203.471	107.312	562.62	30.742	220.068	26.436	145.768	202.919	209.493	198.352	206.189	8192	-8191	8192	8192	254	
77058.391	1	1	0	0	207.065	222.957	195.545	12.5758	208.197	82.265	26.9473	267.456	374.457	421.216	366.216	56.0913	333.135	201.226	101.481	543.413	32.462	218.420	25.935	334.264	203.330	212.147	215.008	202.323	8192	-8191	8192	8192	254	
77058.438	1	1	0	0	224.167	217.993	217.255	2.21054	195.752	91.3351	30.3137	300.263	380.875	414.327	374.611	50.9375	319.596	206.543	104.159	552.226	31.589	216.706	29.564	312.021	201.767	211.817	199.341	205.246	8192	-8191	8192	8192	254	
77058.484	1	1	0	0	232.338	228.18	200.599	1.80993	188.78	98.2996	34.602	280.65	389.38	424.13	367.716	55.2067	326.625	201.952	103.851	561.793	30.848	216.747	24.636	272.043	203.669	214.745	208.655	205.943	8192	-8191	8192	8192	254	
77058.484	1	1	0	0	225.602	203.07	217.189	4.63424	172.858	92.6647	30.5754	275.91	383.149	413.216	370.212	58.2788	312.447	203.149	106.587	526.058	27.270	222.929	29.432	243.689	200.362	208.857	204.574	203.723	8192	-8191	8192	8192	254	
77058.531	1	1	0	0	229.349	234.902	226.153	3.76232	178.75	98.9789	28.5565	280.313	391.562	419.721	362.327	48.0865	317.438	200.572	96.8894	544.231	34.746	217.845	26.232	357.182	207.532	204.995	202.349	204.242	8192	-8191	8192	8192	254	
77058.586	1	1	0	0	226.871	226.905	226.648	2.14405	172.043	92.4233	23.1177	297.913	386.764	419.688	366.457	50.8077	323.601	194.245	91.4712	544.216	34.039	216.387	26.438	195.571	206.458	213.259	203.928	202.936	8192	-8191	8192	8192	254	
77058.633	1	1	0	0	222.85	243.213	208.099	2.95761	188.91	91.7015	29.5191	297.027	378.01	412.933	361.764	53.2837	318.51	199.567	102.514	549.899	30.706	215.527	27.591	59.408	203.075	205.371	206.096	205.660	8192	-8191	8192	8192	254	
77058.703	1	1	0	0	222.765	239.117	208.051	2.15589	191.439	87.766	23.753	294.546	379.538	423.966	368.163	52.5192	324.962	191.784	102.668	558.654	31.123	215.903	26.798	219.139	203.596	210.193	207.911	202.618	8192	-8191	8192	8192	254	
77058.750	1	1	0	0	241.755	227.801	203.405	0.998263	192.694	90.6973	25.8891	303.385	398.462	415.548	361.111	47.0096	322.346	197.058	97.0385	558.173	27.925	214.344	32.525	55.747	204.086	204.310	198.757	205.046	8192	-8191	8192	8192	254	
77058.797	1	1	0	0	226.866	246.598	226.07	5.14622	193.243	94.2671	38.9814	295.506	378.663	425.014	382	48.3894	327.673	213.279	113.774	571.793	32.278	218.820	26.853	172.990	204.844	211.150	207.110	202.662	8192	-8191	8192	8192	254	
77058.844	1	1	0	0	231.352	236.879	216.713	5.57906	183.564	85.3241	26.5348	279.086	402.327	448.688	393.861	72.9087	343.327	224.673	127.692	569.572	28.724	221.545	28.502	147.823	201.652	207.773	222.938	202.685	8192	-8191	8192	8192	254	
77058.891	1	1	0	0	213.362	220.222	203.437	5.03861	183.957	89.0125	27.5595	284.264	401.457	442.428	397.005	72.3702	341.87	227.442	123.327	582.962	31.185	217.534	29.324	125.622	199.961	206.695	208.436	202.561	8192	-8191	8192	8192	254	
77058.945	1	1	0	0	207.234	236.309	193.168	7.14587	174.201	91.5085	29.3894	289.016	402.221	441.183	384.192	78.7885	345.288	229.736	129.639	576.726	31.991	221.556	26.719	290.926	202.603	208.407	190.292	201.256	8192	-8191	8192	8192	254	
77059.016	1	1	0	0	236.362	226.862	213.685	3.52418	188.262	95.9828	21.8502	298.592	412.192	447.423	389	76.8125	345.942	226.577	116.361	578.712	30.565	218.916	29.622	13.743	203.848	207.325	224.575	205.550	8192	-8191	8192	8192	254	
77059.062	1	1	0	0	233.074	226.39	204.194	1.60605	188.799	98.5993	28.2573	285.247	406.611	448.74	390.755	80.3365	349.168	222.284	126.582	575.37	32.049	218.443	28.800	57.994	201.212	203.035	213.463	205.778	8192	-8191	8192	8192	254	
77059.109	1	1	0	0	215.308	220.575	196.649	5.59729	185.729	99.9365	25.0894	305.124	399.697	437.159	396.447	78.1923	343.438	230.861	128.793	576.668	32.385	216.600	26.822	324.065	202.041	211.439	200.637	205.738	8192	-8191	8192	8192	254	
77059.156	1	1	0	0	233.754	219.984	225.055	3.86104	191.241	99.3966	42.9543	276.699	424.091	447.212	412.601	76.7356	341.793	221.043	136.457	585.601	30.705	218.536	27.766	129.065	205.184	207.818	217.675	202.849	8192	-8191	8192	8192	254	
77059.203	1	1	0	0	226.941	223.683	198.881	1.96317	187.901	107.802	36.5475	283.53	415.212	440.264	400.082	78.4375	347.798	224.731	128.433	570.639	32.577	215.749	27.783	332.317	206.126	206.652	199.350	206.013	8192	-8191	8192	8192	254	
77059.258	1	1	0	0	227.46	215.031	221.541	4.06925	195.208	93.305	32.348	300.344	412.596	433.231	403.644	79.4808	355.433	222.096	126.264	578.62	29.416	221.018	32.841	132.110	205.663	212.074	202.477	203.036	8192	-8191	8192	8192	254	
77059.258	1	1	0	0	234.951	244.9	221.259	5.8774	187.01	86.3064	25.7475	297.878	415.846	459.745	401.702	79.7692	353.909	226.024	132.12	577.697	27.607	216.806	28.208	279.650	200.980	208.483	200.065	205.781	8192	-8191	8192	8192	254	
77059.305	1	1	0	0	214.306	230.468	204.447	4.91355	183.304	103.199	33.154	279.257	397.404	441.909	394.043	82.7163	347.591	226.317	125.135	583.163	29.978	211.855	33.365	33.344	200.063	201.140	208.009	201.721	8192	-8191	8192	8192	254	
77059.375	1	1	0	0	228.396	216.725	209.46	6.05767	191.265	91.5858	31.4942	296.202	417.692	430.154	405.995	86.3558	360.135	231.798	131.452	587.389	31.045	222.238	33.855	321.707	202.330	207.859	203.068	205.190	8192	-8191	8192	8192	254	
77059.422	1	1	0	0	219.167	219.293	203.353	4.63421	184.735	94.4945	20.4656	285.028	424.207	462.317	397.793	74.9663	342.986	204.971	102.692	544.889	31.499	212.210	30.380	239.449	203.399	205.489	205.087	202.617	8192	-8191	8192	8192	254	
77059.469	1	1	0	0	226.484	209.789	214.703	5.59702	188.751	97.5836	28.6936	290.238	374.909	405.803	368.529	43.5481	322.192	197.76	98.8173	535.01	29.431	219.573	28.115	351.047	207.201	207.671	216.003	202.282	8192	-8191	8192	8192	254	
77059.516	1	1	0	0	234.451	244.695	203.918	3.64561	184.027	90.3122	31.2363	283.715	372.909	410.168	356.072	42.4856	310.389	188.221	94.2885	544.298	29.627	220.072	26.795	86.956	204.820	205.369	219.013	204.186	8192	-8191	8192	8192	254	
77059.562	1	1	0	0	239.489	197.303	211.389	2.56958	195.771	92.3876	28.8181	286.681	378.082	397.933	357.976	48.4279	307.519	192.913	95.8317	546.904	29.746	216.124	26.089	199.396	201.698	205.259	197.232	206.133	8192	-8191	8192	8192	254	
77059.617	1	1	0	0	223.854	213.303	207.177	1.86295	175.816	88.6137	36.6729	282.236	369.779	399.096	356.812	40.4615	312.13	191.351	98.8606	544.611	27.193	221.439	26.027	348.328	203.590	206.908	203.136	205.444	8192	-8191	8192	8192	254	
77059.664	1	1	0	0	224.833	227.49	207.363	0.477069	193.061	87.3703	30.1795	282.362	370.649	417.178	360.361	43.8894	316.971	190.577	90.3173	537.399	28.364	219.423	27.375	311.485	204.371	206.086	212.321	207.719	8192	-8191	8192	8192	254	
77059.711	1	1	0	0	225.584	234.425	223.541	5.1673	186.067	106.474	26.7249	307.725	376.048	414.548	371.577	44.0048	314.192	198.37	95.4423	559.375	30.979	220.109	25.976	330.000	204.936	209.416	238.387	202.814	8192	-8191	8192	8192	254	
77059.781	1	1	0	0	211.795	241.343	213.788	1.30523	189.421	111.46	32.0233	276.625	370.178	420.486	364.284	43.6971	322.591	199.764	95.0048	534.38	30.779	217.056	25.839	290.372	203.054	200.322	205.596	202.552	8192	-8191	8192	8192	254	
77059.828	1	1	0	0	217.305	243.033	207.295	3.28612	194.8	95.8462	25.5529	300.576	371.365	422.168	364.697	48.2548	321.846	200.582	105	552.832	30.916	220.367	29.416	178.840	203.259	208.937	207.903	205.965	8192	-8191	8192	8192	254	
77059.883	1	1	0	0	224.978	219.381	222.687	2.74472	182.585	86.2507	24.3547	289.439	398.62	421.375	403.889	81.2067	351.197	226.591	129.659	591.74	28.713	219.799	25.127	27.448	204.328	206.178	206.835	199.842	8192	-8191	8192	8192	254	
77059.930	1	1	0	0	235.683	233.383	200.484	7.13028	180.438	76.2693	24.0883	283.348	419.649	458.322	400.293	86.8558	359.51	226.947	133.596	584.822	28.737	221.058	26.596	211.995	201.843	208.941	198.755	203.242	8192	-8191	8192	8192	254	
77059.977	1	1	0	0	221.668	229.77	224.831	3.40408	184.234	96.773	29.8503	318.897	415.707	462.202	408.288	89.6827	362.548	246.279	142.173	604.668	30.744	221.213	27.355	268.708	203.448	207.957	218.673	208.682	8192	-8191	8192	8192	254	
77060.023	1	1	0	0	234.802	219.648	231.312	1.8826	190.739	118.433	21.8987	284.915	425.375	446.562	421.832	100.909	367.745	254.87	140.428	604.635	29.385	220.649	30.412	100.987	203.428	204.630	215.112	206.675	8192	-8191	8192	8192	254	
77060.023	1	1	0	0	214.04	221.715	217.11	6.12512	177.973	104.949	32.8691	278.764	423.803	461.428	426.418	101.683	367.423	260.135	152.043	592.154	30.939	219.729	30.123	17.203	203.618	208.674	211.533	200.180	8192	-8191	8192	8192	254	
77060.070	1	1	0	0	226.176	220.894	188.254	2.25263	193.187	88.5477	36.8187	294.102	431.139	463.433	409.101	97.6923	369.692	246.76	154.736	606.125	27.082	218.908	30.881	11.560	206.368	201.787	200.615	206.077	8192	-8191	8192	8192	254	
77060.117	1	1	0	0	211.502	214.541	207.035	5.74809	184.921	90.9591	28.7247	285.788	417.111	459.788	401.865	107.562	368.341	245.409	151.173	592.678	33.461	217.387	29.510	76.804	205.930	206.041	209.702	202.637	8192	-8191	8192	8192	254	
77060.164	1	1	0	0	244.068	209.352	207.322	5.43051	188.181	97.597	26.5112	314.814	434.712	464.87	415.029	101.688	368.793	246.25	144.51	610.048	30.034	213.606	30.983	235.699	201.936	212.714	209.613	204.310	8192	-8191	8192	8192	254	
77060.242	1	1	0	0	216.322	230.51	205.197	1.80298	196.212	105.134	29.4026	292.372	424.558	459.644	406.361	100.788	376	242.077	151.654	609.779	36.788	214.184	28.331	279.083	203.981	210.743	215.438	204.737	8192	-8191	8192	8192	254	
77060.289	1	1	0	0	226.864	221.369	216.166	5.2148	188.498	99.4928	17.2377	275.327	435.812	457.837	431.048	94.3125	379.938	242.062	154.779	583.534	26.994	217.198	26.196	200.329	204.101	206.531	218.864	203.995	8192	-8191	8192	8192	254	
77060.336	1	1	6	0	210.123	211.316	213.324	2.83438	191.641	88.5895	26.7373	294.841	415.135	453.88	419.793	97.4615	357.962	240.861	144.346	588.923	28.835	220.465	27.340	85.579	202.285	207.484	210.485	203.003	8192	-8191	8192	8192	254	
77060.383	1	1	0	0	231.387	225.44	224.679	2.79962	176.237	85.6382	40.3576	293.421	423.5	460.481	419.361	97.0962	360.159	243.774	145.481	601.452	28.904	219.398	27.700	135.579	204.795	204.843	211.486	204.050	8192	-8191	8192	8192	254	
77060.430	1	1	0	0	243.046	216.876	217.402	7.91542	187.497	105.724	26.1675	278.708	430.846	457.543	408.697	96.9904	355.341	253.01	152.726	589.673	29.607	219.419	31.282	173.090	204.925	206.621	214.565	203.507	8192	-8191	8192	8192	254	
77060.477	1	1	0	0	218.031	233.748	228.192	4.95763	183.271	79.9674	35.3447	303.704	417.76	470.356	419.375	95.0337	369.942	237.514	141.784	607.163	27.438	218.103	25.037	238.882	202.627	216.027	213.998	202.520	8192	-8191	8192	8192	254	
77060.523	1	1	0	0	212.852	231.802	211.484	4.78556	193.909	92.9716	37.1651	298.53	424.942	467.851	408.457	92.6587	371.481	242.293	148.683	599.875	26.122	216.215	26.374	263.681	205.559	214.869	212.609	206.789	8192	-8191	8192	8192	254	
77060.570	1	1	0	0	228.026	225.357	219.737	9.09112	190.166	96.7178	20.7732	305.983	421.529	461.904	425.12	100.803	369.543	243.889	141.981	612.913	32.450	219.422	27.740	243.293	203.867	214.166	208.335	207.539	8192	-8191	8192	8192	254	
77060.648	1	1	0	0	227.895	214.895	213.635	8.36981	179.664	83.9313	33.7458	282.352	434.87	465.712	427.688	100.264	370.438	248.808	160.51	590.707	28.927	217.329	24.101	117.820	202.526	210.561	202.269	202.832	8192	-8191	8192	8192	254	
77060.695	1	1	0	0	226.572	224.346	211.447	6.10585	189.589	102.477	34.167	302.526	435.202	473.918	421.385	106.659	375.135	254.385	156.221	609.062	25.606	222.088	22.600	282.444	202.008	207.661	220.543	201.947	8192	-8191	8192	8192	254	
77060.742	1	1	0	0	209.348	227.806	205.543	1.3601	203.024	93.7612	43.1041	282.736	445.582	476.899	417.856	106.688	394.25	262.846	160.466	599.13	27.654	221.845	29.263	356.326	200.175	202.561	222.950	204.980	8192	-8191	8192	8192	254	
77060.789	1	1	0	0	249.004	235.693	215.413	4.64693	204.809	99.8167	31.1237	268.62	452.591	480.644	430.317	111.284	392.827	268.712	158.096	605.755	29.048	220.246	29.445	151.475	205.125	205.931	211.369	204.736	8192	-8191	8192	8192	254	
77060.789	1	1	0	0	220.391	224.452	210.74	5.3715	210.517	94.5062	34.6226	278.702	432.827	483.231	440.495	119.471	397.471	268.077	166.159	610.745	26.748	216.413	23.943	212.692	204.877	208.018	209.365	201.053	8192	-8191	8192	8192	254	
77060.836	1	1	0	0	216.815	236.549	208.543	11.2809	189.114	107.653	41.9061	293.951	452.091	495.774	441.471	125.635	395.149	276.226	178.688	646.192	28.014	216.964	25.892	230.003	206.765	211.166	212.514	201.180	8192	-8191	8192	8192	254	
77060.883	1	1	0	0	215.315	237.167	209.606	9.5658	171.779	91.929	28.8158	279.151	461.014	504.928	471.014	161.327	451.111	315.534	194.255	644.077	31.155	217.557	30.965	105.780	203.926	216.586	242.679	205.634	8192	-8191	8192	8192	254	
77060.938	1	1	0	0	224.456	240.077	212.514	1.05132	188.623	88.3444	41.1524	300.994	453.755	502.096	442.986	124.923	392.75	270.572	172.067	624.231	27.587	213.727	26.620	114.738	203.907	207.430	214.792	205.223	8192	-8191	8192	8192	254	
77061.008	1	1	0	0	232.142	223.913	208.017	0.532699	188.508	104.853	38.1606	281.312	450.861	468.668	435.846	121.538	399.553	267.312	165.721	607.298	30.652	214.342	22.870	117.225	203.069	210.488	202.956	201.347	8192	-8191	8192	8192	254	
77061.055	1	1	0	0	249.619	211.645	209.51	5.42473	194.792	104.098	23.5983	289.859	442.13	458.615	422.745	106.587	375.779	253.851	157.327	610.981	32.293	219.370	25.797	15.809	202.115	210.023	212.401	204.497	8192	-8191	8192	8192	254	
77061.102	1	1	0	0	216.243	226.13	223.703	7.73922	211.574	96.9682	31.3433	290.409	428.413	464.49	420.514	113.221	378.635	260.385	160.024	603.562	29.634	215.601	28.477	325.121	205.121	209.867	218.473	203.087	8192	-8191	8192	8192	254	
77061.148	1	1	0	0	231.613	230.345	217.541	4.90432	194.687	92.5094	34.8975	297.565	440.264	483.139	433.361	114.452	394.322	274.125	185.048	643.519	23.748	218.138	30.482	162.734	206.424	210.595	208.976	202.898	8192	-8191	8192	8192	254	
77061.195	1	1	0	0	215.778	208.084	207.719	12.2262	192.016	95.7569	22.839	272.776	473.904	507.077	486.014	154.957	440.625	316.904	229.317	684.808	27.211	221.337	29.451	206.364	206.553	203.479	215.421	205.057	8192	-8191	8192	8192	254	
77061.242	1	1	0	0	217.498	242.216	215.298	8.36811	185.574	101.066	9.69406	292.588	511.788	571.466	526.226	225.457	511.149	386.019	323.043	777.904	32.659	220.594	30.457	278.454	209.693	206.667	214.605	200.736	8192	-8191	8192	8192	254	
77061.297	1	1	0	0	226.809	247.924	217.815	14.6643	176.902	85.0526	25.314	283.107	617.793	660.149	635.812	319.462	599.808	491.793	397.183	838.38	29.165	217.701	25.141	103.096	198.434	209.646	180.675	205.622	8192	-8191	8192	8192	254	
77061.344	1	1	0	0	223.277	240.4	219.588	5.18111	190.537	101.702	24.4082	286.49	695.784	722.438	689.587	351.635	626.067	506.428	414.269	868.404	27.169	218.290	29.414	300.100	206.593	192.573	217.766	201.021	8192	-8191	8192	8192	254	
77061.414	1	1	0	0	202.924	244.903	206.406	14.0155	200.463	88.6536	28.4943	292.537	690.697	740.981	680.188	370.404	641.317	512.567	426.798	859.591	34.713	217.625	29.807	182.462	205.075	217.941	224.548	204.109	8192	-8191	8192	8192	254	
77061.461	1	1	0	0	239.369	241.56	181.877	12.5901	193.292	94.8274	38.4591	303.196	697.99	750.197	691.596	384.072	638.351	511.966	413.832	858.889	30.323	220.100	29.911	76.156	203.647	206.938	202.680	198.895	8192	-8191	8192	8192	254	
77061.508	1	1	0	0	206.123	219.07	212.519	9.37489	173.148	96.6324	23.2229	267.438	670.639	707.332	671.144	350.024	595.74	488.096	394.245	801.26	25.933	220.083	32.001	53.556	206.592	213.058	251.193	201.172	8192	-8191	8192	8192	254	
77061.562	1	1	0	0	148.378	113.335	67.964	8.02442	8.60915	11.3591	12.1944	12.1107	570.231	463.058	313.505	177.25	171.659	153.192	159.635	207.221	29.608	216.000	30.548	331.985	204.624	66.335	266.905	305.347	8192	-8191	8192	8192	254	
77061.555	1	1	0	65536	46.3784	238.348	67.7517	32.2213	13.3708	79.3104	169.817	27.326	956.221	10228.9	31666.6	22156.3	25326	28956.8	30727.1	32070.5	121.642	108.441	85.781	315.851	132.412	267.654	231.998	276.845	8192	-8191	8192	8192	254	
77061.609	1	1	0	65536	63.7537	53.8838	144.554	101.209	34.7397	29.7354	0.538462	0	30506.6	29422	29926	30444.9	31344.9	32483.7	32766.7	32767	53.551	266.408	65.556	159.063	281.074	108.750	135.000	180.000	8192	-8191	8192	8192	254	
77061.656	1	1	0	65536	34.9814	112.66	236.457	0	0	0	0	0	30665.4	24026.4	30790.2	32767	32767	32767	32767	32767	3.413	218.349	157.640	180.000	180.000	180.000	180.000	180.000	8192	-8191	8192	8192	254	
77061.703	1	1	0	65536	0	1.08805	54.5659	71.7304	66.9244	109.278	45.2702	48.6036	32767	32765.1	29595.8	27469.1	25712.5	11987.8	5442.7	4416.63	180.000	133.918	199.382	22.185	8.062	299.181	247.731	329.606	8192	-8191	8192	8192	254	
77061.773	1	1	0	0	28.1913	16.6398	11.3492	42.3738	49.9742	42.4271	62.9914	32.1148	4111.29	4152.45	4297.41	4361.23	4306.38	4161.29	3954.92	3842.63	9.556	220.129	28.257	238.615	271.354	43.441	221.018	159.481	8192	-8191	8192	8192	254	
77061.820	1	1	0	0	19.9492	23.721	82.4484	53.5351	15.4457	14.9956	56.123	5.06691	3773.91	3819.95	4837.37	5547.38	4567.49	4245.88	4139.13	4074.13	197.925	155.031	118.529	245.511	197.437	345.448	173.163	161.729	8192	-8191	8192	8192	254	
77061.867	1	1	0	0	22.5498	39.0293	30.3446	66.2004	74.8521	31.6804	15.4976	48.4286	3956.55	4090.06	4260.81	4438.21	4523.9	4633.01	4716.57	4765.58	102.982	182.052	210.827	188.741	193.481	346.884	19.810	302.629	8192	-8191	8192	8192	254	
77061.922	1	1	0	0	21.7081	39.3024	34.9432	26.432	23.6088	11.1863	26.3747	53.3773	4785.85	4903.28	4732.08	3903.22	3331.4	3274.38	3273.11	3236.94	19.823	326.608	291.623	28.584	86.990	75.389	340.838	50.859	8192	-8191	8192	8192	254	
77061.969	1	1	0	0	45.8539	27.5993	12.2744	28.7797	42.7764	16.3672	49.3693	16.6643	3339.55	3419.14	3669.3	3662.67	4734.11	5201.11	5705.8	6589.24	352.647	111.763	96.970	149.884	75.904	314.565	280.391	97.071	8192	-8191	8192	8192	254	
77062.016	1	1	0	0	26.3028	63.0884	46.9913	33.8851	100.243	49.814	38.1709	57.49	7974.39	8189.5	7716.47	7562.68	6008.4	4633.13	6300.33	8719.8	15.817	183.740	210.321	282.779	260.036	81.648	278.378	173.243	8192	-8191	8192	8192	254	
77062.086	1	1	0	65536	207.377	143.522	12.8806	0	0	0	0	0	17753.7	28355.4	32735.9	32767	32767	32767	32767	32767	133.199	83.548	39.728	180.000	180.000	180.000	180.000	180.000	8192	-8191	8192	8192	254	
77062.133	1	1	0	65536	0	0	0	0	0	0	0	0	32767	32767	32767	32767	32767	32767	32767	32767	180.000	180.000	180.000	180.000	180.000	180.000	180.000	180.000	8192	-8191	8192	8192	254	
77062.180	1	1	0	65536	0	218.275	192.296	54.1703	74.6646	86.6863	27.2196	38.638	32767	23122.2	10044.6	9839.53	11373.7	7942.74	4881.88	3062.45	180.000	289.846	277.723	116.791	205.973	297.734	20.313	222.131	8192	-8191	8192	8192	254	
77062.227	1	1	0	65536	15.9067	10.4676	16.4203	8.3061	6.56017	12.8223	13.0419	10.4377	1952.84	1411.88	1059.9	728.611	512.913	409.99	404.106	412.293	50.614	156.138	338.366	259.362	267.359	123.973	39.532	38.067	8192	-8191	8192	8192	254	
77062.281	1	1	0	0	12.1665	10.2063	4.9854	4.05807	10.4769	6.92723	5.33346	7.41365	394.755	395.082	398.904	397.962	393.26	393.923	393.538	386.284	166.945	330.065	103.061	312.922	19.984	199.953	170.084	332.823	8192	-8191	8192	8192	254	
77062.328	1	1	0	0	12.5738	3.96352	11.6086	22.0228	6.88638	23.3758	17.327	17.5837	394.572	381.394	387.303	380.668	370.779	384.923	375.962	374.173	348.598	258.279	291.292	267.395	45.452	106.326	186.661	256.624	8192	-8191	8192	8192	254	
77062.328	1	1	0	0	13.6496	7.80402	20.6149	10.6689	4.97015	5.13389	4.43434	6.61828	371.072	364.913	363.317	354.938	339.88	322.197	322.875	303.101	322.369	46.771	186.475	87.266	187.559	129.182	245.364	258.567	8192	-8191	8192	8192	254	
77062.375	1	1	0	0	8.81685	4.20789	5.5965	7.37594	12.7062	3.24523	5.00138	1.37464	289.5	280.649	274.115	268.149	262.231	252.106	254.13	242.952	180.168	328.131	79.487	85.569	228.400	126.392	344.348	348.485	8192	-8191	8192	8192	254	
77062.445	1	1	0	0	8.23975	12.3988	2.70856	13.0425	10.9424	0.879196	9.62838	5.16064	242.332	243.303	237.091	236.587	223.812	226.322	224.067	225.764	258.525	65.324	26.476	9.334	213.129	63.232	315.690	273.955	8192	-8191	8192	8192	254	
77062.492	1	1	0	0	6.21579	7.03066	13.9616	5.25633	8.07114	11.3597	3.50897	4.57555	225.611	217.538	219.264	185.476	192.471	182.611	179.798	184.163	311.125	206.344	263.868	98.032	194.371	262.272	224.334	226.497	8192	-8191	8192	8192	254	
77062.539	1	1	0	0	18.2884	13.5076	3.67239	6.87635	6.61692	13.4165	1.98455	12.0613	171.49	172.75	159.788	157.106	155.952	158.125	162.846	158.115	125.371	244.183	44.127	347.014	329.363	257.175	61.437	285.209	8192	-8191	8192	8192	254	
77062.594	1	1	0	0	2.2303	8.68631	0.497467	1.48006	12.7788	16.4769	7.95638	73.1682	172.668	172.649	187.255	213.712	276.293	343.558	409.587	554.99	163.599	211.757	143.263	91.397	241.682	249.676	224.066	211.480	8192	-8191	8192	8192	254	
77062.641	1	1	0	0	74.7839	64.7944	56.6256	7.96298	46.9902	30.5691	6.59843	101.075	545.058	566.038	574.428	479.154	557.519	521.591	512.034	625.755	36.361	209.921	34.061	21.752	212.994	204.019	223.462	209.497	8192	-8191	8192	8192	254	
77062.688	1	1	0	0	56.2294	76.1057	67.6705	7.05485	48.3983	1.19081	12.1844	105.763	572.01	601.322	571.197	464.298	562.043	524.255	491.452	630.764	54.427	208.572	41.008	225.109	207.418	185.973	210.778	209.254	8192	-8191	8192	8192	254	
77062.734	1	1	0	0	51.197	62.6026	56.5491	14.9297	43.698	33.8095	11.6265	89.7392	586.087	563.13	563.659	474.486	566.418	524.495	484.63	623.404	24.212	212.051	52.775	168.724	214.514	193.442	234.227	207.131	8192	-8191	8192	8192	254	
77062.781	1	1	0	0	65.1789	55.4474	74.327	26.3517	63.8144	37.9688	25.9045	113.352	563.279	581.212	556.981	458.688	533.207	494.5	451.288	608.005	23.889	229.038	41.724	294.534	208.295	219.505	229.660	197.916	8192	-8191	8192	8192	254	
77062.852	1	1	0	0	77.8358	66.2387	53.9787	4.28335	73.3465	49.9197	15.4338	84.5576	538.952	537.668	521.096	415.726	502.74	465.793	411.538	549.173	42.162	218.876	28.294	66.198	204.779	226.828	269.620	202.084	8192	-8191	8192	8192	254	
77062.906	1	1	0	0	74.7454	69.7183	68.2681	17.0718	43.6663	29.527	23.9098	87.4532	476.625	480.12	451.404	350.346	431.279	377.947	343.755	465.082	33.100	238.169	36.374	53.617	200.849	212.430	243.710	219.358	8192	-8191	8192	8192	254	
77062.953	1	1	0	0	63.5019	62.1904	68.7774	5.1588	54.6438	17.7114	10.6362	91.1862	401.466	382.221	372.115	255.409	340.986	288.322	242.495	396.438	35.134	235.886	27.504	98.412	212.171	222.684	179.576	215.976	8192	-8191	8192	8192	254	
77063.000	1	1	0	0	69.0075	71.4275	62.1046	2.41128	55.3816	27.2663	12.2529	105.963	319.625	330.12	294.822	196.534	275.957	230.88	198.822	333.486	24.163	217.014	40.785	43.589	215.385	202.534	233.384	205.238	8192	-8191	8192	8192	254	
77063.047	1	1	0	0	69.669	67.5035	63.8237	4.14689	47.3088	29.5251	7.90196	74.555	270.558	269.913	265.51	159.356	229.851	184.135	160.577	288.202	23.963	221.874	32.359	342.299	212.507	210.170	196.295	214.945	8192	-8191	8192	8192	254	
77063.094	1	1	0	0	46.5846	60.2516	53.345	7.29366	52.345	28.171	2.20453	79.6666	216.837	222.053	198.24	112.736	191.712	158.365	114.308	249.135	42.725	215.847	41.794	228.146	206.306	194.607	232.657	217.598	8192	-8191	8192	8192	254	
77063.094	1	1	0	0	53.8917	53.3902	57.7846	0.67605	47.106	21.6532	2.19248	91.4758	197.707	202.043	197.385	104.889	178.341	147.274	123.635	253.538	33.786	245.583	30.967	5.450	202.936	215.950	257.825	212.161	8192	-8191	8192	8192	254	
77063.141	1	1	0	0	58.3078	58.3917	50.8538	9.45337	58.0514	34.5045	15.0588	81.4642	194.976	201.389	182.639	106.524	191.25	161.654	120.25	248.755	28.012	229.936	44.231	160.629	207.613	196.225	233.552	207.568	8192	-8191	8192	8192	254	
77063.188	1	1	0	0	63.8575	56.259	44.2277	2.85779	50.3934	25.5955	17.104	91.877	198.51	202.635	194.087	116.038	185.654	154.841	138.51	255.678	34.096	233.242	24.409	357.911	213.648	216.529	175.400	213.010	8192	-8191	8192	8192	254	
77063.234	1	1	0	0	58.5231	62.7703	47.6579	1.64299	48.5903	25.7886	10.714	75.4318	202.865	206.861	199.889	110.548	190.476	159.125	133.409	256.447	36.389	228.826	37.280	84.760	212.276	191.427	248.550	218.198	8192	-8191	8192	8192	254	
77063.312	1	1	0	0	63.2197	69.4162	51.608	6.44155	44.7036	20.0821	12.2961	95.2987	211.062	208.024	192.341	118.255	192.452	161.365	134.077	272.649	32.439	231.784	44.904	350.379	198.917	221.028	233.827	204.976	8192	-8191	8192	8192	254	
77063.359	1	1	0	0	71.9768	58.2708	51.93	4.83784	54.3792	27.3871	3.80388	70.9007	210.452	217.024	208.659	127.822	203.38	174.673	145.51	269.452	23.744	218.417	46.991	280.658	211.502	207.883	195.959	210.368	8192	-8191	8192	8192	254	
77063.406	1	1	0	0	60.7774	48.6348	56.2823	14.9536	55.4683	30.7917	11.0984	67.7492	215.188	223.096	214.798	129.865	207.846	170.394	145.101	274.933	31.718	237.473	38.098	25.223	206.797	244.233	202.032	211.478	8192	-8191	8192	8192	254	
77063.453	1	1	0	0	68.1567	47.8308	57.4377	2.14515	68.1678	30.7259	16.1613	68.232	221.216	207.803	213.212	125.654	215.236	172.798	142.101	275.476	33.391	230.933	44.571	88.278	220.470	213.573	249.256	202.774	8192	-8191	8192	8192	254	
77063.500	1	1	0	0	58.2799	67.1753	49.4107	10.9111	45.1559	21.7	16.8953	82.8957	211.178	223.76	207.062	122.562	203.101	164.394	138.875	263.731	33.342	218.036	29.867	214.455	204.908	200.945	240.387	213.758	8192	-8191	8192	8192	254	
77063.555	1	1	0	0	58.9677	56.1201	57.2228	4.97004	50.674	25.283	3.70945	91.3781	203.774	216.49	199.293	121.538	187.673	163.394	127.88	261.899	32.731	224.411	23.678	304.713	206.065	202.496	191.355	206.464	8192	-8191	8192	8192	254	
77063.625	1	1	0	0	58.3823	49.7722	58.6336	6.0012	56.0461	18.4019	15.0561	78.9388	201.226	210.082	193.024	121.125	187.663	152.111	132.692	261.63	31.402	219.834	26.126	330.637	207.637	219.023	224.331	195.529	8192	-8191	8192	8192	254	
77063.672	1	1	0	0	63.0647	44.5575	49.3522	2.71567	62.2559	22.6588	4.02548	102.42	199.692	202.812	205.159	115.803	175.731	160.755	128.663	254.26	39.708	225.562	38.441	18.830	196.458	214.788	149.744	208.287	8192	-8191	8192	8192	254	
77063.719	1	1	0	0	49.4852	55.589	62.7383	8.59054	55.7721	26.53	16.4094	79.5793	196.428	201.663	194.096	108.688	183.957	144.909	119.255	242.409	24.450	220.460	28.242	45.311	210.205	221.932	227.468	204.624	8192	-8191	8192	8192	254	
77063.766	1	1	0	0	69.435	52.8364	52.3238	3.97908	55.8385	33.2247	16.1438	80.0936	193.803	206.163	190.231	109.082	176.736	152.654	123.702	257.923	42.263	225.531	29.416	305.320	202.639	208.439	214.582	210.111	8192	-8191	8192	8192	254	
77063.812	1	1	0	0	49.6892	64.5674	52.6703	3.9494	50.155	26.9475	17.4462	74.1112	187.014	203.12	189.582	105.212	186.668	148.154	122.029	248.567	31.804	220.881	35.862	39.113	199.004	198.440	220.396	206.355	8192	-8191	8192	8192	254	
77063.859	1	1	0	0	49.8942	59.3307	56.2089	9.25458	51.5221	27.6614	9.10542	83.087	188.207	200.337	196.337	105.76	177.346	147.394	121.288	247.231	25.905	218.395	31.331	245.586	205.568	210.007	225.463	200.522	8192	-8191	8192	8192	254	
77063.859	1	1	0	0	59.0635	39.8396	46.5783	5.03278	48.6842	37.1927	1.1323	78.5516	199.351	193.375	188.692	104.962	188.659	157.957	123.976	256.356	40.805	221.962	41.412	180.761	206.181	213.338	237.321	206.095	8192	-8191	8192	8192	254	
77063.914	1	1	0	0	47.69	44.0114	47.8076	6.4053	53.3972	16.3091	10.3554	89.2788	201.298	205.524	187.298	111.88	190.702	150.312	135.505	266.399	38.915	215.938	36.828	88.183	204.319	217.458	224.472	210.954	8192	-8191	8192	8192	254	
77063.984	1	1	0	0	48.9887	59.9247	53.1864	1.89936	55.0212	32.0871	10.8992	75.0968	196.332	209.76	194.269	111.837	190.62	158.572	131.01	253.375	25.940	226.950	32.939	10.732	200.539	208.260	184.203	218.247	8192	-8191	8192	8192	254	
77064.031	1	1	0	0	57.4404	65.2962	47.9659	7.41531	55.488	30.1131	16.854	81.8903	199.476	216.707	199.986	121.519	192.058	162.428	137.688	269.553	24.565	214.388	27.567	29.467	207.513	217.986	197.983	201.979	8192	-8191	8192	8192	254	
77064.078	1	1	0	0	49.0777	61.138	50.1451	13.6357	59.4828	31.7267	13.7445	85.476	204.995	211.62	196.784	114.082	188.197	158.38	130.577	257.827	33.244	229.917	26.636	344.136	225.536	195.188	246.966	199.602	8192	-8191	8192	8192	254	
77064.125	1	1	0	0	56.2422	64.0283	50.6756	1.37549	49.1318	20.617	3.71712	78.9134	200.904	204.745	192.817	111.423	189.24	156.293	120.659	244.582	37.470	222.296	25.814	324.897	210.425	203.078	232.507	204.070	8192	-8191	8192	8192	254	
77064.172	1	1	0	0	62.7772	57.9235	51.832	4.87698	45.1865	25.9981	4.47076	78.7162	194.293	193.923	186.62	101.149	175.418	155.159	118.736	246.361	40.162	221.706	40.883	100.611	205.846	224.745	153.185	214.019	8192	-8191	8192	8192	254	
77064.219	1	1	0	0	60.9222	49.4091	52.6398	5.04312	48.9557	28.1487	3.35519	81.0928	193.014	196.163	184.495	104.837	173.808	144.596	119.668	246.457	29.918	224.780	32.117	302.123	208.987	202.987	280.425	209.242	8192	-8191	8192	8192	254	
77064.273	1	1	0	0	44.6014	58.8398	53.5478	3.84967	39.7312	24.3265	7.92399	80.7155	189.404	195.962	185.663	102.163	170.024	149.034	115.894	246	24.899	221.562	30.990	31.494	207.814	195.984	227.562	210.084	8192	-8191	8192	8192	254	
77064.320	1	1	0	0	64.1558	53.6891	46.8893	16.7368	56.9718	22.8658	9.38622	82.6511	189.928	197.981	179.173	106.495	182.832	139.308	113.332	250.74	36.418	219.381	40.694	102.810	203.415	212.613	166.782	213.813	8192	-8191	8192	8192	254	
77064.367	1	1	0	0	57.9791	58.2162	52.0661	3.06401	50.9421	21.2452	12.1593	87.3573	191	202.99	189.529	103.106	169.159	147.582	114.399	243.913	28.933	228.965	40.180	199.889	207.420	224.564	215.299	201.742	8192	-8191	8192	8192	254	
77064.414	1	1	0	0	58.3099	70.2651	51.1898	4.04182	44.9551	31.0013	7.2115	91.8777	188.462	201.529	190.952	104.688	184.904	141.389	114.486	255.894	35.454	227.018	28.515	22.503	201.965	221.052	201.411	205.095	8192	-8191	8192	8192	254	
77064.484	1	1	0	0	59.8221	69.2498	45.8056	4.28248	43.5495	29.8084	9.55819	76.6186	182.514	192.207	185.577	101.029	174.332	134.543	111.413	242.072	25.610	221.914	34.431	143.254	214.507	195.674	171.673	208.280	8192	-8191	8192	8192	254	
77064.531	1	1	0	0	46.1675	54.4361	62.9904	0.570636	45.6043	29.6992	11.3808	87.781	181.418	192.611	187.125	96.7115	168.495	145.149	116.428	238.038	40.512	226.350	39.857	245.697	212.484	203.946	225.182	208.217	8192	-8191	8192	8192	254	
77064.586	1	1	7	0	70.4257	64.53	64.2709	5.8203	58.5491	24.1846	6.09019	81.7254	176.25	178.014	165.764	68.8317	138.163	92.5865	65.0865	189.909	34.191	222.629	31.371	245.167	210.521	213.228	177.649	206.897	8192	-8191	8192	8192	254	
77064.633	1	1	0	0	53.6376	57.0822	52.7408	3.90252	52.0345	25.4256	9.8588	88.1546	133.601	139.692	122.822	44.2212	128.764	90.3606	58.476	190.091	32.910	218.187	33.641	0.418	210.605	210.723	221.068	207.120	8192	-8191	8192	8192	254	
77064.633	1	1	0	0	65.7833	57.9426	53.3327	8.43676	55.1432	23.1172	7.178	82.8904	131.99	137.37	127.697	47.0385	115.702	87.0865	59.3173	179.115	31.591	223.590	32.310	238.233	206.043	210.875	193.571	209.739	8192	-8191	8192	8192	254	
77064.680	1	1	0	0	60.8057	64.9802	56.9155	2.07906	46.8332	20.1512	17.6321	85.2628	130.538	136.841	125.947	42.7308	115.519	86.899	67.4279	193.168	30.472	226.156	28.694	226.868	210.668	206.265	233.890	206.883	8192	-8191	8192	8192	254	
77064.727	1	1	0	0	50.4022	53.2583	57.2605	4.03662	57.8076	28.6598	6.85152	91.7732	129.159	139.798	135.24	51.3413	126.207	83.4327	59.3798	192.043	38.661	226.476	31.901	35.720	201.946	217.567	218.888	209.578	8192	-8191	8192	8192	254	
77064.773	1	1	0	0	58.0836	65.6943	54.2783	2.52803	63.394	23.2	4.49275	85.236	131.13	144.486	140.192	51.2788	128.163	87.4808	58.8269	192.947	37.706	222.833	34.607	91.117	211.055	215.592	190.257	204.430	8192	-8191	8192	8192	254	
77064.844	1	1	0	0	64.0387	70.5153	58.1494	7.46692	63.7113	31.0605	2.06291	79.0417	138.26	145.072	130.865	51.2452	133.601	100.279	83.4904	218.303	39.540	220.660	27.956	31.398	206.058	192.664	183.029	203.775	8192	-8191	8192	8192	254	
77064.898	1	1	0	0	64.6369	47.2345	56.5837	3.56502	50.7655	34.2228	13.4001	78.8212	165.505	183.005	170.611	84.7115	155.077	126.601	102.582	222.385	33.452	212.322	33.533	109.779	222.670	210.186	221.970	203.623	8192	-8191	8192	8192	254	
77064.945	1	1	0	0	54.3616	56.7719	50.347	9.48044	40.7271	28.9623	7.36228	85.5049	171.481	171.457	165.322	90.1923	156.861	129.577	99.0192	229.284	24.496	223.689	46.850	108.139	208.058	214.746	237.969	207.726	8192	-8191	8192	8192	254	
77064.992	1	1	0	0	67.7888	57.5858	52.06	7.52711	57.4877	29.7576	17.0226	98.9846	179.178	181.596	167.466	83.5673	149.865	126.856	94.4567	232.173	40.387	229.826	25.421	6.060	204.830	217.925	237.371	211.759	8192	-8191	8192	8192	254	
77065.039	1	1	0	0	62.4431	47.055	48.8211	10.4928	47.9499	41.5482	14.6429	87.9582	163.688	169.736	163.106	83.2885	153.423	126.413	100.779	223.433	33.455	228.685	32.394	181.319	202.172	197.988	192.254	206.439	8192	-8191	8192	8192	254	
77065.086	1	1	0	0	50.4218	64.9924	60.615	2.83349	45.972	27.7225	4.34704	92.1592	164.894	172.091	171.087	76.2404	146.394	108.5	84.4279	207.058	23.925	230.422	36.007	249.730	209.517	204.941	185.106	211.480	8192	-8191	8192	8192	254	
77065.156	1	1	0	0	57.082	51.6715	55.9315	6.86939	44.9457	22.4006	9.39594	78.7245	142.048	149.712	139.447	56.0721	123.034	86.6587	68.4327	187.894	38.155	222.709	34.641	24.489	218.310	214.507	224.964	205.376	8192	-8191	8192	8192	254	
77065.203	1	1	0	0	45.5857	62.3204	55.4024	1.66637	56.252	31.9986	6.00438	76.6444	132.63	149.654	137.577	48.2933	123.173	93.625	57.875	196.543	38.879	228.305	33.323	256.523	206.649	207.855	256.616	218.623	8192	-8191	8192	8192	254	
77065.258	1	1	0	0	71.3305	64.3942	53.2562	2.43582	53.8524	22.5886	7.44789	78.5874	146.149	143.096	132.207	54.1779	128.596	92.6731	69.2308	190.01	43.676	216.508	33.208	48.170	216.200	216.244	172.618	202.310	8192	-8191	8192	8192	254	
77065.305	1	1	0	0	58.0076	54.1913	61.3026	5.20615	59.8116	29.2168	4.81926	71.3112	139.173	139.721	135.034	45.7163	123.524	95.3029	67.4135	189.577	38.780	226.097	31.404	200.831	211.023	218.296	156.298	212.401	8192	-8191	8192	8192	254	
77065.352	1	1	0	0	62.7256	51.3235	53.7925	4.84793	44.0783	27.9784	13.3321	74.4279	141.457	145.51	127.966	52.5192	121.865	94.899	70.1154	192.784	40.548	228.679	36.738	226.114	205.253	222.897	210.349	207.117	8192	-8191	8192	8192	254	
77065.398	1	1	0	0	61.4394	54.4469	58.401	5.52322	56.3466	28.3366	7.39069	79.9018	137.072	141.731	132.125	54.0337	127.812	95.851	68.3558	193.245	45.544	219.525	30.370	10.844	214.142	217.220	217.458	207.837	8192	-8191	8192	8192	254	
77065.398	1	1	0	0	55.8892	61.5488	48.6024	7.14957	56.0852	27.6864	7.3904	85.2963	141.173	146.692	125.827	57.1202	124.13	90.024	66.9038	197.745	32.757	228.997	35.006	202.633	209.838	203.377	204.312	208.388	8192	-8191	8192	8192	254	
77065.445	1	1	0	0	45.6286	57.2041	53.25	4.37846	49.7435	27.7673	13.5837	80.1378	137.462	149.812	128.399	49.774	123.625	89.9856	64.1058	198.274	38.306	227.336	34.792	282.916	213.100	215.968	208.958	210.313	8192	-8191	8192	8192	254	
77065.492	1	1	0	0	61.6147	58.2128	63.4042	3.96133	47.4817	15.6463	14.7381	92.088	148.178	142.721	139.942	50.6635	121.245	93.5288	70.5337	195.942	39.308	222.515	28.640	123.036	212.907	213.657	199.510	211.487	8192	-8191	8192	8192	254	
77065.547	1	1	0	0	58.3408	67.1953	63.3715	6.89118	52.1428	34.1933	9.40169	105.143	137.822	154.125	139.01	51.2019	129.784	98.4279	67.5625	203.639	26.096	227.649	23.975	167.367	207.848	222.991	210.918	207.152	8192	-8191	8192	8192	254	
77065.617	1	1	0	0	64.0891	57.0805	56.9416	7.35944	60.2539	23.5464	7.85336	81.0758	138.404	144.88	130.346	53	128.918	95.399	62	192.856	39.106	219.547	22.704	208.363	210.273	214.590	254.219	207.125	8192	-8191	8192	8192	254	
77065.664	1	1	0	0	69.8835	50.9118	57.9869	3.43802	53.2452	25.3292	6.95614	90.0993	142.558	142.072	146.293	53.1587	124.202	97.3606	70.8462	201.457	34.194	224.682	36.335	184.982	194.366	200.494	242.139	211.841	8192	-8191	8192	8192	254	
77065.711	1	1	0	0	66.9826	57.4349	55.3489	8.65794	49.8127	23.5377	9.89238	55.7859	136.885	149.231	122.245	55.9471	131.543	96.5192	69.9808	192.957	43.437	223.449	33.038	81.577	217.142	216.372	264.635	216.794	8192	-8191	8192	8192	254	
77065.758	1	1	0	0	55.0869	55.1437	50.0524	3.61663	52.5061	27.0205	7.95586	79.858	142.63	148.067	137.216	55.0048	132.048	96.6538	67.2163	189.351	31.997	220.530	29.472	155.603	205.571	207.972	179.499	211.986	8192	-8191	8192	8192	254	
77065.828	1	1	0	0	56.7809	53.9196	47.9367	4.86383	48.1989	33.9372	4.67914	86.2499	140.995	153.106	137.308	51.2019	127.529	94.9135	71.399	201.26	39.984	223.190	38.108	113.810	212.135	209.325	158.591	210.483	8192	-8191	8192	8192	254	
77065.883	1	1	0	0	67.0118	55.872	58.2684	8.62538	52.1064	30.0949	3.7248	80.0364	146.356	145.399	139.144	57.8413	127.712	97.3317	69.8029	192.495	31.111	228.133	25.652	48.510	212.087	204.852	234.822	213.403	8192	-8191	8192	8192	254	
77065.930	1	1	0	0	52.3074	55.8974	55.2352	3.17083	52.2161	25.4234	10.7905	79.7431	145.048	147.832	134.466	54.524	139.404	97.2788	72.9279	198.74	33.783	226.129	37.977	181.723	207.848	225.198	242.619	210.870	8192	-8191	8192	8192	254	
77065.977	1	1	0	0	55.5811	63.6235	48.3897	2.53042	48.2478	30.4683	8.92036	97.112	138.899	148.913	131.111	54.1875	127.034	96.9231	69.0433	210.183	35.375	224.200	40.912	191.021	200.976	227.442	253.035	203.358	8192	-8191	8192	8192	254	
77066.023	1	1	0	0	59.9524	62.5671	50.0543	3.00101	40.4518	27.1297	16.1315	87.1847	142.207	157.038	140.375	68.649	137.399	109.231	85.524	217.361	28.270	228.935	31.113	161.340	212.231	214.718	237.941	209.619	8192	-8191	8192	8192	254	
77066.070	1	1	0	0	46.4795	60.9316	54.8285	6.9312	56.5207	24.4814	11.3881	70.3917	158.442	172.995	157.5	76.3654	155.885	121.596	93.1346	224.793	40.848	217.344	23.002	224.599	206.903	205.270	219.176	213.561	8192	-8191	8192	8192	254	
77066.117	1	1	0	0	58.2144	62.1194	50.1983	8.95908	53.1117	29.0019	4.95427	97.4716	173.409	186.716	167.288	84.101	159.375	123.106	91.1875	234.106	30.371	234.171	30.716	268.061	209.120	204.255	163.098	211.592	8192	-8191	8192	8192	254	
77066.164	1	1	0	0	61.2167	63.1788	55.7314	11.0385	47.7651	27.6812	7.30617	83.4859	167.111	177.361	161.668	76.2644	156.981	120.99	102.885	223.091	43.255	232.696	34.975	154.288	217.402	229.859	239.065	214.170	8192	-8191	8192	8192	254	
77066.164	1	1	0	0	52.055	50.6882	55.7201	1.89356	53.3058	26.7981	14.0186	90.2636	170.538	175.5	163.837	81.25	156.433	120.303	104.957	235.111	38.044	232.602	30.940	19.915	211.997	183.240	221.791	212.784	8192	-8191	8192	8192	254	
77066.211	1	1	0	0	60.338	51.6299	58.8958	7.56214	46.3481	23.3249	11.3727	75.1604	163.534	165.875	162.779	80.601	152.543	129.452	95.5962	218.264	31.145	227.941	35.447	35.872	212.480	200.196	226.274	201.476	8192	-8191	8192	8192	254	
77066.289	1	1	0	0	56.1214	67.3666	52.3259	10.5975	50.6178	22.3413	7.51628	88.2188	165.308	172.755	164.245	80.5865	153.192	121.173	90.3413	222.111	42.790	223.039	36.122	265.005	214.562	215.930	155.846	206.907	8192	-8191	8192	8192	254	
77066.336	1	1	0	0	61.7553	64.1233	55.7966	5.03997	58.6438	27.9916	9.84194	84.5501	166.332	172.433	152.274	80.9712	163.082	122.01	97.125	220.428	32.708	219.716	26.699	122.014	214.119	213.214	112.767	208.272	8192	-8191	8192	8192	254	
77066.359	1	1	0	0	60.7327	52.4569	52.8505	3.15787	45.8483	30.3096	14.8647	90.5413	167.543	166.543	161.894	75.524	149.096	119.226	102.707	223.375	45.206	223.166	36.684	15.340	211.007	203.840	205.642	202.439	8192	-8191	8192	8192	254	
77066.406	1	1	0	0	57.015	63.8035	62.4927	2.90245	54.2764	28.5669	15.7376	80.2515	164.043	174.433	164.981	81.601	153.918	107.659	91.1442	221.38	40.354	223.074	30.275	66.874	211.178	211.671	207.677	212.578	8192	-8191	8192	8192	254	
77066.477	1	1	0	0	60.7784	47.2363	52.6021	3.9322	50.4818	22.0991	9.50262	80.9498	172.062	172.543	158.389	71.4567	146.606	121.024	93.6875	225.168	34.914	233.829	41.185	151.321	212.175	206.397	228.023	209.635	8192	-8191	8192	8192	254	
77066.523	1	1	0	0	50.6176	66.8288	51.5587	10.6573	46.2125	30.4537	11.8298	73.8727	160.447	172.014	155.413	83.5721	156.466	118.779	90.2212	212.144	24.553	222.898	35.001	311.338	204.366	214.879	248.393	213.775	8192	-8191	8192	8192	254	
77066.578	1	1	0	0	74.0165	50.7921	57.3447	1.05612	56.2727	32.7785	9.52776	80.2188	169.846	170.716	160.317	74.9087	145.678	120.798	94.0913	223.067	37.125	221.021	27.094	116.753	206.444	206.688	247.685	209.306	8192	-8191	8192	8192	254	
77066.625	1	1	0	0	75.5427	53.8894	64.1715	6.78358	49.9131	28.9118	5.76916	64.4146	166.404	167.091	164.365	77.1923	150.245	124.712	92.2548	218.832	46.118	232.079	40.281	238.441	191.651	229.570	212.958	211.067	8192	-8191	8192	8192	254	
77066.672	1	1	0	0	52.3783	63.8322	51.9266	6.02855	60.0015	22.4798	6.76877	77.6601	163.481	172.399	154.413	80.1731	155.596	120.183	96.149	210.697	36.733	234.305	32.468	11.749	219.595	226.869	181.417	207.179	8192	-8191	8192	8192	254	
77066.719	1	1	0	0	69.0578	67.2988	45.58	8.47383	41.7413	39.231	3.16345	88.2837	162.865	169.197	161.649	77.976	145.245	120.188	97.4808	220.01	37.930	227.243	32.333	205.822	214.868	207.737	197.254	200.542	8192	-8191	8192	8192	254	
77066.789	1	1	0	0	57.9287	49.6313	55.1226	4.30555	41.4157	29.6248	10.4285	82.5605	154.476	163.625	163.486	75.1106	147.74	113.087	94.1394	215.861	33.975	217.588	34.597	304.616	195.898	218.418	211.038	209.736	8192	-8191	8192	8192	254	
77066.836	1	1	0	0	56.0229	63.2236	58.0366	2.25121	46.1078	33.0505	7.10915	80.4229	163.49	169.663	157.308	75.0721	148.476	120.13	85.2788	209.26	45.911	229.247	33.787	112.428	221.321	200.995	224.640	208.213	8192	-8191	8192	8192	254	
77066.891	1	1	0	0	50.6734	64.8182	56.3589	5.80962	57.2959	19.4015	16.386	93.5114	154.837	171.769	157.447	69.0673	141.457	107.913	84.9856	214.043	37.716	232.561	27.734	190.410	195.959	214.851	215.587	209.436	8192	-8191	8192	8192	254	
77066.938	1	1	0	0	59.7387	48.3461	67.4058	3.74014	55.813	39.3152	6.63867	86.6862	150.995	158.928	147.115	66.4615	138.548	112.034	76.5817	209.524	30.842	224.683	31.383	233.312	205.936	208.870	176.542	205.216	8192	-8191	8192	8192	254	
77066.938	1	1	0	0	53.2046	51.0566	58.599	5.24484	48.6773	20.1572	6.77565	80.1059	138.067	137.625	141.024	53.1394	125.567	89.5337	69.0865	195.534	41.736	233.738	42.112	204.681	215.956	208.200	258.702	212.276	8192	-8191	8192	8192	254	
77066.984	1	1	0	0	50.6152	53.896	54.6566	3.0545	54.6524	21.7836	10.5063	81.4489	137.889	143.25	139.082	52.4135	127.697	96.0288	63.1731	193.529	32.511	230.969	33.314	123.478	203.648	220.378	212.860	211.066	8192	-8191	8192	8192	254	
77067.055	1	1	0	0	55.1272	55.8513	52.2738	1.08519	55.0808	28.2003	16.0653	81.0029	134.812	143.284	131.894	48.4087	128.462	95.399	65.6394	190.529	31.088	219.350	23.364	81.774	212.650	221.795	211.774	206.107	8192	-8191	8192	8192	254	
77067.102	1	1	0	0	63.6741	62.0225	51.6924	4.37657	59.5577	32.5007	14.0042	73.2665	133.726	142.25	130.726	47.4952	129.788	97.976	65.5144	185.269	31.265	230.461	36.008	120.552	218.696	210.570	216.487	204.628	8192	-8191	8192	8192	254	
77067.148	1	1	0	0	64.1149	54.8975	57.6917	2.96989	54.4307	30.0151	9.07832	78.0666	133.837	142	129.178	48.8654	116.5	88.4904	64.774	185.418	33.564	218.784	29.959	313.744	212.818	227.213	213.020	206.019	8192	-8191	8192	8192	254	
77067.195	1	1	0	0	52.5653	59.0089	50.1285	6.28592	53.3786	28.7649	8.72917	87.1146	131.707	145.889	123.591	48.6923	124.221	92.9231	64.2885	203.558	34.558	230.596	27.307	224.220	203.315	210.140	161.027	208.283	8192	-8191	8192	8192	254	
77067.250	1	1	0	0	73.8827	55.2379	50.5785	3.07948	52.5861	27.2153	4.60572	80.8045	139.255	138.976	130.125	50.4231	124.904	88.6346	66.7837	191.51	30.121	224.963	35.702	52.859	199.606	217.229	160.298	215.829	8192	-8191	8192	8192	254	
77067.297	1	1	0	0	63.4267	55.9604	55.3014	6.4133	48.1078	23.1137	10.2007	82.92	130.986	152.038	132.245	47.5865	127.572	91.899	62.5577	196.115	33.598	225.967	39.485	301.195	204.988	196.583	257.440	207.781	8192	-8191	8192	8192	254	
77067.344	1	1	0	0	63.2662	61.3297	51.3375	2.99311	56.5458	31.1203	10.6082	95.342	133.928	141.082	133.798	47.6538	123.183	94.3029	62.8029	201.264	33.805	231.578	25.171	213.959	214.336	235.017	257.689	210.336	8192	-8191	8192	8192	254	
77067.391	1	1	0	0	55.5157	60.9778	52.5413	4.08602	49.0239	30.9179	12.5545	75.4756	137.808	154.38	133.812	47.7356	122.654	95.4375	66.125	192.034	39.355	237.067	33.766	248.682	220.416	217.691	210.769	206.892	8192	-8191	8192	8192	254	
77067.461	1	1	0	0	65.7107	54.8749	50.61	6.05053	52.2868	29.7336	7.99731	76.1035	134.029	140.63	128.827	55.4135	128.159	91.601	60.8798	196.38	34.744	230.767	39.033	204.490	215.979	211.855	246.683	209.666	8192	-8191	8192	8192	254	
77067.508	1	1	0	0	62.473	52.7734	47.9548	7.60294	59.7163	23.2887	10.2449	71.5094	136.284	144.173	135.361	53.3173	130.284	92.9615	72.0913	186.942	34.506	218.292	30.711	124.479	205.164	204.790	233.457	211.531	8192	-8191	8192	8192	254	
77067.562	1	1	0	0	58.2461	54.7171	46.8574	3.16105	44.7596	27.4698	9.66449	88.9662	133.577	141.409	128.779	48.8365	127.5	97.5192	62.351	197.861	34.958	233.265	20.269	294.772	215.010	209.225	208.211	204.683	8192	-8191	8192	8192	254	
77067.609	1	1	0	0	56.5931	53.4343	45.6662	3.50279	46.7645	18.204	8.38198	85.2415	141.452	149.423	129.01	49.5096	119.202	94.7452	67.1635	201.346	34.552	219.040	32.811	215.961	216.496	214.923	220.384	208.948	8192	-8191	8192	8192	254	
77067.656	1	1	0	0	54.1533	65.1995	44.1205	6.40134	55.3469	25.5375	12.556	84.1708	136.067	156.438	133.048	54.0577	120.76	103.197	68.5481	192.615	42.255	224.608	29.608	125.517	205.820	214.003	194.881	206.538	8192	-8191	8192	8192	254	
77067.703	1	1	0	0	59.4729	60.1439	60.114	1.66262	53.2053	33.0026	8.97735	94.3681	137.913	151.173	137.769	56.0096	127.885	99.1923	71.6394	202.745	31.496	226.962	38.081	24.547	204.065	209.934	205.072	207.560	8192	-8191	8192	8192	254	
77067.703	1	1	0	0	56.8879	64.4252	45.0291	3.68292	60.1172	30.1876	5.01516	83.6686	140.505	151.062	128.659	57.1058	138.067	100.005	70.6154	196.639	36.981	227.059	31.296	56.079	209.613	202.445	227.065	202.215	8192	-8191	8192	8192	254	
77067.750	1	1	0	0	65.338	59.2306	53.6878	3.09946	45.3659	24.4637	11.1285	88.1923	139.995	142.091	137.572	51.6442	130.572	86.6635	71.6827	198.087	41.391	226.642	25.574	104.056	218.721	215.644	232.539	206.834	8192	-8191	8192	8192	254	
77067.820	1	1	0	0	63.8777	58.9317	47.6293	3.21816	41.7801	22.3883	12.735	81.4997	138.63	146.106	134.986	60.1058	124.024	101.216	73.6202	196.788	27.616	231.413	33.248	162.013	211.430	205.773	202.161	212.309	8192	-8191	8192	8192	254	
77067.867	1	1	0	0	49.2347	52.9115	48.3375	1.7234	52.7917	27.6574	2.98842	76.5238	136.37	154.072	135.312	54.0913	129.168	99.6587	65.7115	191.178	36.134	218.248	23.457	257.283	217.954	222.029	206.086	206.241	8192	-8191	8192	8192	254	
77067.922	1	1	0	0	61.697	65.3744	54.876	4.91074	53.2129	25.9454	12.1018	74.9505	132.375	147.216	135.385	55.4808	122.274	92.875	67.9375	188.216	26.198	221.021	37.389	42.091	216.211	207.817	210.012	200.013	8192	-8191	8192	8192	254	
77067.969	1	1	0	0	68.2586	58.8669	44.7415	3.88136	54.1911	30.8043	8.71168	82.7356	144.389	149.947	133.635	51.2163	128.654	93.976	66.6106	195.865	32.944	219.480	35.522	197.396	206.778	216.703	200.141	207.957	8192	-8191	8192	8192	254	
77068.016	1	1	8	0	69.4862	49.6847	51.1996	3.3538	54.9708	22.2594	6.29108	71.4747	141.5	146.712	131.308	56.1058	129.716	98.8221	68.2404	186.385	42.137	219.012	38.899	309.408	213.598	215.856	267.026	209.175	8192	-8191	8192	8192	254	
77068.062	1	1	0	0	60.4612	59.2148	53.0042	2.27837	52.1205	26.2257	15.0012	87.1289	142.284	145.058	141.639	52.7933	124.755	95.9567	76.5192	201.25	35.966	222.653	35.692	351.586	202.851	206.426	214.364	207.245	8192	-8191	8192	8192	254	
77068.109	1	1	0	0	56.4101	54.3025	42.365	9.45365	44.1457	34.7534	8.5821	83.5135	142.101	143.639	133.284	56.6923	123.01	94.9279	66.5192	200.529	34.955	211.808	36.533	175.459	213.958	219.202	209.647	217.357	8192	-8191	8192	8192	254	
77068.156	1	1	0	0	55.1068	57.4279	40.481	3.18764	55.7393	30.7434	8.23491	74.5111	132.529	150.264	126.034	52.726	125.413	97.4663	67.7788	183.058	33.359	224.979	36.691	160.651	209.883	198.319	179.041	214.164	8192	-8191	8192	8192	254	
77068.234	1	1	0	0	56.3526	63.5426	57.3763	7.92567	51.1552	25.4409	12.0718	84.8336	138.053	149.394	134.577	53.1298	119.048	94.7067	71.5288	189.144	31.644	223.272	34.251	149.148	210.647	203.823	208.193	203.405	8192	-8191	8192	8192	254	
77068.281	1	1	0	0	59.397	57.6529	58.1991	2.66347	50.3312	22.0205	13.0195	77.0397	137.904	140.942	131.413	57.2452	126.587	92.774	68.6058	188.12	40.177	226.082	32.804	312.560	207.025	208.213	259.787	204.796	8192	-8191	8192	8192	254	
77068.328	1	1	0	0	56.8044	47.3826	60.7482	4.87513	41.7697	25.3974	10.7863	61.5663	133.423	138.264	138.582	49.9038	122.529	96.1731	63.4327	196.029	28.130	213.005	30.458	236.576	202.541	212.537	219.213	214.803	8192	-8191	8192	8192	254	
77068.375	1	1	0	0	67.8028	54.0548	65.6737	3.72046	52.8745	31.2849	14.4138	86.1534	135.841	148.212	141.543	56.0625	119.577	95.101	69.4135	201.053	36.138	238.113	34.761	280.382	218.691	208.744	209.361	209.065	8192	-8191	8192	8192	254	
77068.422	1	1	0	0	66.7355	66.729	49.9997	5.54916	54.2092	32.5329	9.97187	83.7192	144.812	148.745	134.635	56.0721	131.88	94.2308	67.8029	200.63	33.012	227.673	23.874	316.429	215.448	228.223	235.092	207.342	8192	-8191	8192	8192	254	
77068.469	1	1	0	0	53.9285	54.9496	45.9316	5.66382	49.643	28.051	0.761016	76.48	136.226	141.111	123.582	53.7067	125.49	94.274	67.2019	191.543	26.995	236.123	39.666	88.702	207.823	212.144	119.664	205.987	8192	-8191	8192	8192	254	
77068.469	1	1	0	0	57.5605	62.7328	47.3035	1.49171	47.4829	28.0324	10.9639	78.2657	139.611	145.995	130.332	52.1106	130.466	93.9375	65.9231	194.135	38.880	214.142	32.110	83.986	214.304	203.948	203.767	198.696	8192	-8191	8192	8192	254	
77068.516	1	1	0	0	53.8226	57.5772	51.329	2.34603	56.2861	23.8325	9.95675	89.3212	139.851	149.904	133.034	53.6154	131.726	96.8029	70.0577	193.798	37.758	217.331	20.339	183.871	207.852	204.479	198.266	210.008	8192	-8191	8192	8192	254	
#DATA ENDS
