BOXY.EXE: ISS Imagent Data Acquisition Program Version 0.82
Ascii Record File

#ACQ INFORMATION
1  Detector Channels 
8  External MUX Channels 
4  Auxiliary Analog Channels 
5000  Waveform (CCF) Frequency (Hz)
4  Waveforms Skipped 
26  Waveforms Averaged 
1  Cycles Averaged 
8  Acquisitions per Waveform 
1  Auxiliary Digital Channels 

#Data Update Rate
20.8333  Update Rate (Hz) 
FALSE -- Use Phase Reference
FALSE -- Use Continuous Phase Reference
FALSE -- Use Intensity Reference
FALSE -- Use Continuous Intensity Reference

#FILE INFORMATION
TRUE -- External MUX Channel results are PARSED.
FALSE -- AC DC and Phase are NOT grouped.
TRUE -- Companion Program Settings File CREATED.
FALSE -- AC data not excluded
FALSE -- DC data not excluded
FALSE -- Phase data not excluded
FALSE -- Auxillary Chn. data not excluded
Tab delimiters

#CALIBRATION STATE
FALSE -- Waveform Calibration Values NOT applied.

#WAVELENGTH DATA
Wavelength Index	Wavelength	Comp1 ExtCoef	Comp2 ExtCoef	Comp3 ExtCoef	Comp4 ExtCoef	BackGround	Weight	

1	6.600e+02	1.486e+00	3.844e+00	1.000e+00	1.000e+00	1.890e-02	1.000e+00	
2	6.900e+02	2.315e+00	1.792e+00	1.000e+00	1.000e+00	2.180e-02	1.000e+00	
3	7.500e+02	1.000e+00	1.000e+00	1.000e+00	1.000e+00	3.010e-03	1.000e+00	
4	7.750e+02	1.000e+00	1.000e+00	1.000e+00	1.000e+00	3.240e-03	1.000e+00	
5	7.850e+02	1.000e+00	1.000e+00	1.000e+00	1.000e+00	1.660e-02	1.000e+00	
6	8.000e+02	1.000e+00	1.000e+00	1.000e+00	1.000e+00	1.480e-02	1.000e+00	
7	8.250e+02	1.000e+00	1.000e+00	1.000e+00	1.000e+00	1.620e-02	1.000e+00	
8	8.300e+02	1.000e+00	1.000e+00	1.000e+00	1.000e+00	2.620e-02	1.000e+00	


#AUX CALIBRATION VALUES
Val Type	aux-1	aux-2	aux-3	aux-4	

Term	0.0000e+00	0.0000e+00	0.0000e+00	0.0000e+00	
Factor	1.0000e+00	1.0000e+00	1.0000e+00	1.0000e+00	


#WF CALIBRATION VALUES
A = Detector Channel
Val Type	A-AC1	A-AC2	A-AC3	A-AC4	A-AC5	A-AC6	A-AC7	A-AC8	A-DC1	A-DC2	A-DC3	A-DC4	A-DC5	A-DC6	A-DC7	A-DC8	A-Ph1	A-Ph2	A-Ph3	A-Ph4	A-Ph5	A-Ph6	A-Ph7	A-Ph8	

Term	0.00000e+00	0.00000e+00	0.00000e+00	0.00000e+00	0.00000e+00	0.00000e+00	0.00000e+00	0.00000e+00	0.00000e+00	0.00000e+00	0.00000e+00	0.00000e+00	0.00000e+00	0.00000e+00	0.00000e+00	0.00000e+00	-1.05892e+02	-9.99249e+01	-2.86485e+02	-2.62799e+02	-2.45797e+02	-2.48632e+02	-7.72400e+01	-7.86612e+01	
Factor	3.48934e-02	2.88771e-02	2.23541e-02	4.58344e-02	3.11822e-02	3.92311e-02	3.80806e-02	2.80088e-02	4.70955e+01	8.07534e+01	3.66973e+01	1.04434e+02	6.45565e+01	3.94082e+01	9.13796e+01	5.49806e+01	X	X	X	X	X	X	X	X	



#DISTANCE SETTINGS
A = Detector Channel
A-1	A-2	A-3	A-4	A-5	A-6	A-7	A-8	

1.5000e+00	1.5000e+00	1.5000e+00	1.5000e+00	1.5000e+00	1.5000e+00	1.5000e+00	1.5000e+00	



#ADDITIONAL SIGNAL INFORMATION
A = Detector Channel
Info. Type	A-1	A-2	A-3	A-4	A-5	A-6	A-7	A-8	

cal. block. ind.	1	1	1	1	1	1	1	1	
wavelength ind.	0	1	2	3	4	5	6	7	
weight	1.0000e+00	1.0000e+00	1.0000e+00	1.0000e+00	1.0000e+00	1.0000e+00	1.0000e+00	1.0000e+00	


#CALIBRATION BLOCK OPTICAL PROPS
Calib. Block Num.	WaveLen Index	Absorption	Scattering	

1	1	1.080e-01	9.000e+00	
1	2	1.300e-01	1.070e+01	
1	3	1.130e-01	9.400e+00	
1	4	1.210e-01	1.000e+01	
1	5	1.080e-01	9.000e+00	
1	6	1.300e-01	1.070e+01	
1	7	1.150e-01	9.600e+00	
1	8	1.330e-01	1.090e+01	

Calib. Block Num.	WaveLen Index	Absorption	Scattering	

2	1	1.120e-01	4.400e+00	
2	2	1.200e-01	5.700e+00	
2	3	1.140e-01	4.600e+00	
2	4	1.160e-01	5.100e+00	
2	5	1.120e-01	4.400e+00	
2	6	1.200e-01	5.700e+00	
2	7	1.150e-01	4.800e+00	
2	8	1.210e-01	6.000e+00	

Calib. Block Num.	WaveLen Index	Absorption	Scattering	

3	1	9.300e-02	8.700e+00	
3	2	1.010e-01	1.040e+01	
3	3	9.500e-02	9.000e+00	
3	4	9.700e-02	9.600e+00	
3	5	9.300e-02	8.700e+00	
3	6	1.010e-01	1.040e+01	
3	7	9.600e-02	9.300e+00	
3	8	1.030e-01	1.080e+01	

Calib. Block Num.	WaveLen Index	Absorption	Scattering	

4	1	1.000e-01	1.000e+01	
4	2	1.000e-01	1.000e+01	
4	3	1.000e-01	1.000e+01	
4	4	1.000e-01	1.000e+01	
4	5	1.000e-01	1.000e+01	
4	6	1.000e-01	1.000e+01	
4	7	1.000e-01	1.000e+01	
4	8	1.000e-01	1.000e+01	



#DATA BEGINS
time	group	step	mark	flag	A-AC1	A-AC2	A-AC3	A-AC4	A-AC5	A-AC6	A-AC7	A-AC8	A-DC1	A-DC2	A-DC3	A-DC4	A-DC5	A-DC6	A-DC7	A-DC8	A-Ph1	A-Ph2	A-Ph3	A-Ph4	A-Ph5	A-Ph6	A-Ph7	A-Ph8	aux-1	aux-2	aux-3	aux-4	digaux	

77168.055	1	1	0	768	3723.21	9.09452	3513.84	1669.92	503.334	5101	0.709201	2.26651	5601.65	61.274	5098.89	2633.78	919.538	8898.43	54.0048	48.8317	194.001	49.444	9.475	13.994	13.793	9.703	135.738	261.466	8192	-8191	8192	8192	254	
77168.109	1	1	0	0	4674.01	4907.5	4260.07	12.2809	3508.92	1650.11	522.185	5157.02	6878.89	7943.86	6472.75	62.2933	5128.63	2626.06	912.721	8885.64	194.689	22.859	193.137	12.431	8.829	10.818	14.889	9.947	8192	-8191	8192	8192	254	
77168.180	1	1	0	0	4642.63	4934.01	4315.04	4.22316	3539.31	1697.77	530.23	5122.11	6883.14	7945.21	6545.82	62.5769	5142.07	2640.68	927.784	8898.45	194.023	22.597	193.239	32.954	9.350	11.560	14.527	9.023	8192	-8191	8192	8192	254	
77168.227	1	1	0	0	4649.88	4923.77	4375.6	4.16863	3614.57	1675.63	497.872	5078.78	6869.36	7973.03	6589.41	62.5	5153.38	2634.13	914.75	8828.41	193.339	22.382	192.462	354.751	9.525	12.173	15.327	9.430	8192	-8191	8192	8192	254	
77168.273	1	1	0	0	4597.29	4960.06	4341.1	5.704	3520.15	1669.66	540.845	5151.95	6835.62	7960.18	6575.46	57.3606	5137.72	2639.13	930.808	8913.27	193.400	22.940	193.122	262.751	8.515	13.334	16.610	9.506	8192	-8191	8192	8192	254	
77168.320	1	1	0	0	4696.4	4947.45	4409.75	7.16462	3509.7	1663.01	497.388	5159.13	6899.48	7989.29	6639.09	60.1635	5144.32	2638.96	921.832	8908.33	194.052	21.694	194.076	346.953	8.981	14.014	15.364	8.987	8192	-8191	8192	8192	254	
77168.367	1	1	0	0	4646.77	4987.01	4421.57	3.61765	3500.44	1663.66	527.852	5176.79	6828.85	7996.81	6656.91	57.4663	5099.03	2637.13	930.913	8889.79	194.429	22.759	193.669	24.988	9.037	13.027	15.839	9.716	8192	-8191	8192	8192	254	
77168.422	1	1	0	0	4694.41	4943.94	4397.02	7.45943	3521.15	1664.09	511.755	5151.35	6881.35	8011	6661.5	56.4904	5139.96	2634.62	920.966	8926.26	194.006	21.599	192.879	26.130	9.824	12.307	14.196	9.565	8192	-8191	8192	8192	254	
77168.469	1	1	0	0	4652.35	4913.5	4376.3	5.00642	3602.21	1677.46	553.289	5081.73	6856.56	7933.45	6663.48	63.524	5165.58	2629.66	924.019	8918.51	194.272	23.226	192.924	349.504	9.111	13.274	14.842	9.498	8192	-8191	8192	8192	254	
77168.516	1	1	0	0	4648.17	4870.37	4397.27	11.3123	3534.6	1649.87	510.538	5108.94	6866.52	7872.61	6651.19	60.7933	5128.92	2621.25	921.216	8839.32	193.924	22.694	192.678	27.957	9.506	13.758	16.884	9.197	8192	-8191	8192	8192	254	
77168.562	1	1	0	0	4676.01	4967.03	4392.92	4.36997	3547.48	1678.12	530.281	5052.29	6893.85	7972.11	6643.77	55.4471	5151.94	2664.11	936.183	8840.14	193.977	22.005	193.323	18.921	9.229	12.386	17.386	9.033	8192	-8191	8192	8192	254	
77168.609	1	1	0	0	4601.75	4878.2	4414.64	7.43806	3529.82	1608.79	483.813	5175.56	6829.46	7981.01	6667.26	67.5529	5138.95	2628.95	921.293	8870.19	193.607	21.832	192.486	18.965	9.321	13.288	13.722	9.158	8192	-8191	8192	8192	254	
77168.680	1	1	0	0	4604.23	4883.04	4343.23	0.919386	3560.2	1658.76	532.669	5121.84	6836	7950.65	6642.05	60.7788	5170.09	2639.08	937.226	8887.42	193.893	22.567	192.394	123.167	9.517	12.360	16.682	9.725	8192	-8191	8192	8192	254	
77168.734	1	1	0	0	4636.98	4933.81	4426.03	4.60103	3598.65	1660.82	507.356	5080.57	6831.29	7948.52	6682.75	55.601	5197.16	2619.15	917.447	8829.85	193.826	22.484	193.698	25.853	8.673	12.904	15.889	10.002	8192	-8191	8192	8192	254	
77168.781	1	1	0	0	4688.8	4973.59	4379.95	8.30727	3550.51	1640.9	515.679	5064.79	6882.41	7918.38	6629.39	60.5673	5163.41	2636.75	930.298	8839.84	193.914	21.915	193.072	16.066	9.553	11.882	18.089	9.171	8192	-8191	8192	8192	254	
77168.828	1	1	0	0	4638.57	4953.17	4415.96	7.36287	3559.43	1638.69	534.609	5068.68	6890.37	7965.54	6691.83	56.9567	5152.51	2622.3	934.846	8847	194.079	22.565	191.691	26.186	8.565	13.393	15.785	9.325	8192	-8191	8192	8192	254	
77168.828	1	1	0	0	4684.3	4925.86	4351.8	12.6249	3538.18	1671.35	512.832	5081.31	6870.31	7934.71	6628.48	59.7163	5152.85	2644.3	917.495	8876.92	193.942	22.373	193.320	53.091	8.650	12.736	17.197	8.973	8192	-8191	8192	8192	254	
77168.875	1	1	0	0	4615.29	4888.84	4320.84	8.91634	3494.44	1682.7	512.864	5096.17	6845.46	7956.69	6633.88	57.6154	5105.46	2643.63	923.986	8824.04	193.376	22.076	192.936	4.877	9.156	11.670	19.183	9.435	8192	-8191	8192	8192	254	
77168.922	1	1	1	0	4763.76	4872.7	4373.38	6.22239	3536.19	1632.49	558.21	5134.46	6924.61	7920.81	6685.81	60.649	5135.61	2599.01	949.846	8918.24	193.980	22.317	192.750	358.763	9.926	13.614	16.249	9.485	8192	-8191	8192	8192	254	
77168.969	1	1	0	0	4654.91	4937.06	4365.84	7.78957	3587.95	1698.83	530.75	5124.41	6864.87	7953.79	6653.91	57.7356	5173.33	2638.82	937.13	8868.63	193.403	22.735	192.532	21.241	9.294	12.934	16.991	9.446	8192	-8191	8192	8192	254	
77169.016	1	1	0	0	4675.94	4959.06	4377.54	6.8711	3560.33	1649.35	510.803	5167.03	6876.41	7964.54	6671.49	55.5673	5142.08	2640.05	932.505	8921.12	193.600	22.739	192.868	7.265	8.571	12.669	18.495	9.597	8192	-8191	8192	8192	254	
77169.062	1	1	0	0	4619.49	4927.66	4338.69	8.57921	3543.87	1670.84	520.148	5123.09	6827.12	7979.87	6645.45	63.3317	5120.11	2661.4	929.495	8900.5	194.279	22.074	192.841	62.176	10.141	13.698	14.736	9.260	8192	-8191	8192	8192	254	
77169.141	1	1	0	0	4649.37	4871.11	4409.08	8.68283	3527.27	1652.43	512.077	5118.94	6850.75	7923.06	6677.6	56.2404	5106.68	2642.75	928.538	8896.17	194.217	22.196	192.991	356.332	9.765	12.769	16.394	8.640	8192	-8191	8192	8192	254	
77169.188	1	1	0	0	4639.21	4923.62	4442.46	6.46045	3508.88	1695.03	527.39	5154.74	6824.03	7910.58	6711.79	60.5673	5097.98	2664.37	918.577	8904.96	194.021	22.670	193.158	22.667	8.759	14.157	17.852	9.813	8192	-8191	8192	8192	254	
77169.234	1	1	0	0	4622.49	4904.38	4476.87	7.61408	3557.99	1668.81	525.009	5139.56	6856.42	7933.99	6722.43	58.9087	5136.18	2632.57	923.755	8852.2	194.165	22.324	192.395	33.996	9.097	13.572	16.832	9.748	8192	-8191	8192	8192	254	
77169.281	1	1	0	0	4657.38	4999.12	4338.52	7.51165	3584.14	1684.26	539.812	5173.55	6913.85	7973.42	6625.62	60.9904	5172.56	2649.71	942.144	8887.97	194.408	22.224	192.501	314.130	8.658	12.075	16.108	9.398	8192	-8191	8192	8192	254	
77169.328	1	1	0	0	4611.14	4899.84	4341.39	10.2124	3631.54	1632.14	514.794	5092.66	6850.11	7997.84	6645.23	62.726	5173.05	2625.13	922.841	8901.73	193.326	22.596	193.198	356.952	9.412	12.569	14.552	10.556	8192	-8191	8192	8192	254	
77169.383	1	1	0	0	4623.79	4944.6	4373.96	11.3474	3587.03	1704.62	510.395	5111.22	6825.65	7957.58	6649.91	59.3462	5175.85	2635.61	917.457	8875.4	194.557	21.981	192.527	359.207	9.682	13.905	19.204	10.223	8192	-8191	8192	8192	254	
77169.453	1	1	0	0	4664.89	4939.89	4428.55	8.53183	3577.36	1687.77	522.147	5133.56	6896.21	8001.45	6655.48	56.0625	5148.31	2646.7	943.24	8891.84	194.254	21.585	192.381	295.460	8.973	12.274	16.446	9.561	8192	-8191	8192	8192	254	
77169.500	1	1	0	0	4649.54	4888.81	4341.63	3.21327	3549.51	1660.89	514.07	5198.9	6813.25	7926.67	6670.66	58.6154	5139.51	2614.07	912.798	8853.36	193.810	22.002	193.184	56.871	9.210	12.243	17.256	9.606	8192	-8191	8192	8192	254	
77169.547	1	1	0	0	4673.74	4919.16	4409.41	7.54929	3513.34	1686.05	545.425	5107.34	6869.26	7949.85	6655.24	58.7163	5107.86	2619.43	938.159	8820.16	194.364	22.945	192.999	22.957	8.828	12.986	16.382	9.593	8192	-8191	8192	8192	254	
77169.594	1	1	0	0	4694.57	4871.9	4430.13	5.14967	3506.78	1655.39	554.224	5111.68	6861.64	7900.32	6736.8	55.5096	5133.41	2651.22	934.423	8850.11	193.785	21.448	192.643	72.391	10.512	13.343	15.864	9.297	8192	-8191	8192	8192	254	
77169.594	1	1	0	0	4635.78	4947.48	4372.84	3.57087	3532.26	1655.11	529.721	5131.01	6824.93	7970.59	6667.93	60.3029	5135.04	2625.8	921.024	8845.5	193.117	21.607	192.541	38.940	8.916	11.495	14.938	8.820	8192	-8191	8192	8192	254	
77169.641	1	1	0	0	4688.49	4948.75	4433.32	2.47622	3510.56	1696.13	515.712	5113.83	6871.27	8007.23	6681.1	62.1154	5118.26	2672.69	939.846	8888.17	193.762	21.474	192.912	0.001	9.527	12.488	15.545	9.808	8192	-8191	8192	8192	254	
77169.688	1	1	0	0	4681.08	4879.81	4326.95	1.51456	3549.43	1672.01	543.534	5152.02	6862.18	7958.05	6672.54	63.4231	5127.53	2641.36	945.938	8885.62	193.108	23.161	193.337	73.199	9.242	12.535	16.047	9.800	8192	-8191	8192	8192	254	
77169.734	1	1	0	0	4558.77	4953.92	4347.57	1.49195	3559.65	1655.62	502.264	5075.19	6795.41	7960.08	6661.33	61.0962	5152.34	2617.98	917.365	8889.01	193.431	21.819	192.989	61.930	9.653	12.217	17.679	9.131	8192	-8191	8192	8192	254	
77169.812	1	1	0	0	4675.04	4863.29	4354.24	5.69545	3587.08	1681.03	508.698	5106.5	6865.95	7954.32	6671.11	61.25	5161.75	2630.14	928.471	8885.75	193.880	21.917	192.756	63.248	9.157	12.283	16.262	9.026	8192	-8191	8192	8192	254	
77169.859	1	1	0	0	4636.99	4908.39	4312.17	9.11181	3554.58	1657.84	519.386	5283.08	6834.94	7992.17	6628.06	58.5048	5149.38	2632.76	926.899	8975.9	193.546	22.307	192.591	15.971	9.292	12.989	16.889	9.571	8192	-8191	8192	8192	254	
77169.906	1	1	0	0	4681.27	4932	4391.6	8.96486	3497.11	1648.23	520.105	5162.68	6916.34	7942.67	6698.05	63.6827	5123.99	2621.95	926.288	8851.33	194.443	22.607	193.027	25.406	10.001	12.389	16.995	9.702	8192	-8191	8192	8192	254	
77169.953	1	1	0	0	4652.98	4955.19	4329.98	3.33215	3594.68	1668.58	536.009	5098.69	6864.36	7978.59	6645.29	57.9519	5150.64	2645.61	940.452	8880.38	194.018	21.799	192.546	38.933	9.237	13.156	15.341	9.064	8192	-8191	8192	8192	254	
77170.000	1	1	0	0	4689.38	4861	4451.38	7.82536	3559.95	1648.82	521.334	5128	6896.19	7910.43	6673.08	58.0529	5134.8	2631.3	935.716	8909.3	194.205	22.282	192.446	10.007	8.593	11.875	15.212	9.104	8192	-8191	8192	8192	254	
77170.055	1	1	0	0	4637.6	4897.61	4356.52	8.14456	3556.84	1634.89	526.663	5084.11	6844.6	7928.15	6663.41	59.6779	5144.61	2630.51	934.548	8822.71	194.333	22.019	192.931	54.061	9.127	10.889	19.138	9.762	8192	-8191	8192	8192	254	
77170.125	1	1	0	0	4688.17	5004.6	4449.03	7.13465	3542.93	1656.24	548.243	5059.03	6874.12	8016.6	6717.7	60.024	5100.08	2619.75	930.962	8855.66	194.319	22.269	192.807	38.154	9.484	13.015	16.186	9.501	8192	-8191	8192	8192	254	
77170.172	1	1	0	0	4666.79	4964.24	4430.07	3.39939	3566.8	1663.38	515.74	5124.9	6852.24	7995.19	6743.62	57.5577	5173.8	2638.64	913.702	8918	194.464	22.658	193.599	112.179	9.810	11.968	17.333	9.803	8192	-8191	8192	8192	254	
77170.219	1	1	0	0	4591.28	4955.8	4462.77	4.03266	3551.8	1680.8	505.708	5103.93	6802.64	7951.94	6706.83	62.3798	5157.59	2663.36	909.106	8858.91	194.174	22.808	193.364	52.693	10.072	12.792	15.078	9.525	8192	-8191	8192	8192	254	
77170.266	1	1	0	0	4652.44	4887.35	4363.02	9.77366	3541.5	1648.6	518.278	5013.58	6848.57	7943.23	6618.05	59.4375	5158.11	2633.34	906.928	8777.69	193.653	22.602	192.895	52.129	9.050	12.632	14.367	9.942	8192	-8191	8192	8192	254	
77170.312	1	1	0	0	4657.58	4932.02	4421.16	4.28087	3646.52	1677.03	510.545	5265.97	6907.12	7983.62	6725.96	65.649	5234.39	2666.33	904.476	9114.07	194.170	22.354	193.871	19.714	8.716	12.702	16.688	9.873	8192	-8191	8192	8192	254	
77170.359	1	1	0	0	4664.59	4982.05	4360.94	9.38452	3640.66	1660.48	509.024	5207.11	6881.45	8051.76	6686.99	65.1971	5200.86	2624.12	934.957	9061.62	194.066	22.864	192.938	351.945	9.151	11.306	15.181	9.684	8192	-8191	8192	8192	254	
77170.359	1	1	0	0	4663.09	4967.47	4404.02	7.25724	3617.87	1595.73	514.865	5166.3	6861.07	8051.79	6677.72	67.1394	5202.44	2608.33	902.481	8902.4	193.967	21.833	192.918	354.159	9.760	12.503	17.004	10.322	8192	-8191	8192	8192	254	
77170.414	1	1	0	0	4697.8	4920.92	4397.3	2.52736	3489.13	1665.31	507.855	5075.79	6936.75	7939.95	6675	61.7548	5112.83	2643.02	908.351	8711.52	193.943	22.580	192.518	336.053	9.535	13.149	16.251	9.399	8192	-8191	8192	8192	254	
77170.484	1	1	0	0	4709.9	4990.78	4428.85	7.3809	3560.16	1633.11	537.52	5048.65	6928.23	7994.56	6688.57	59.524	5162.71	2623.44	931.111	8647.33	194.262	22.752	192.953	65.094	9.321	12.572	15.415	9.507	8192	-8191	8192	8192	254	
77170.531	1	1	0	0	4655.9	5008.81	4426.45	8.24287	3581.25	1666.07	545.824	5010.37	6857.24	7975.02	6690.96	57.8942	5161.15	2619.08	913.111	8682.66	193.661	22.512	192.331	0.121	9.480	12.057	18.163	9.490	8192	-8191	8192	8192	254	
77170.578	1	1	0	0	4655.33	4939.01	4424.16	6.14464	3604.78	1641.05	525.3	4960.49	6860.97	7949.49	6741.05	62.1202	5159	2634.09	929.356	8719.29	193.211	22.279	192.564	25.199	9.388	12.987	15.756	10.295	8192	-8191	8192	8192	254	
77170.625	1	1	0	0	4725.45	4824.53	4446.3	3.91851	3597.59	1675.85	518.718	5104.89	6919.15	7899.56	6731.85	85.8558	5211.71	2666.52	942.404	8894.04	194.092	22.347	192.904	2.538	9.356	11.979	15.484	9.604	8192	-8191	8192	8192	254	
77170.680	1	1	0	0	4639.56	4893.26	4381.06	9.16175	3559.95	1685.51	524.422	5247.26	6890.34	7955.86	6676.64	90.1827	5171.57	2683.92	950.668	8962.34	194.120	22.177	192.450	337.308	9.546	13.196	18.439	9.058	8192	-8191	8192	8192	254	
77170.727	1	1	0	0	4726.21	4923.96	4390.64	6.0958	3620.16	1699.87	532.6	5194.66	6892.8	7956.14	6703.03	82.6779	5233.77	2682.34	946.51	8967.38	194.274	22.308	192.748	65.082	9.188	12.760	17.224	8.798	8192	-8191	8192	8192	254	
77170.773	1	1	0	0	4627.51	4945.8	4404.5	8.7576	3602.86	1701.65	534.241	5069.19	6874.26	8021.62	6698.46	90.7212	5191.75	2693.51	954.038	8985.84	193.849	22.449	193.161	29.254	9.253	11.947	15.801	9.461	8192	-8191	8192	8192	254	
77170.820	1	1	0	0	4696.38	4907.29	4427.07	5.02567	3511.6	1684.87	519.156	5181.76	6933.2	8015.41	6684.06	89.6154	5178.35	2663.04	954.019	8957.9	193.977	22.389	192.122	9.838	9.641	12.077	14.453	9.440	8192	-8191	8192	8192	254	
77170.867	1	1	0	0	4608.5	4968.15	4376.2	8.66082	3529.9	1690.37	507.46	5166.19	6884.3	8044.82	6701.61	82.3606	5147.49	2681.9	936.269	8941.31	194.216	22.437	192.208	37.185	8.722	13.580	15.212	9.362	8192	-8191	8192	8192	254	
77170.914	1	1	0	0	4671.17	4916.51	4468.93	11.8342	3556.85	1655.25	511.097	5130.58	6847.26	7974.7	6733.06	66.024	5140.88	2622.52	917.399	8866.59	193.372	22.673	192.982	40.006	9.837	12.951	14.515	9.921	8192	-8191	8192	8192	254	
77170.984	1	1	0	0	4681.74	4914.28	4357.67	8.38156	3557.7	1631.37	500.791	5041.24	6865.62	7927.36	6660.49	60.8125	5150.25	2623.06	906.096	8798.28	194.190	21.813	192.895	42.052	10.187	13.444	17.772	8.986	8192	-8191	8192	8192	254	
77171.031	1	1	0	0	4609.9	4821.87	4357.3	6.88565	3637.86	1701.28	508.425	5108.29	6853.38	7861.04	6648.12	58.0962	5164.63	2644.21	902.659	8866.86	193.640	22.959	192.710	1.723	9.558	13.380	16.209	9.478	8192	-8191	8192	8192	254	
77171.086	1	1	0	0	4650.24	4921.76	4460.41	7.48249	3541.61	1674.04	518.836	5139.9	6881.48	7943.35	6682.01	59.8942	5135.07	2648.15	897.582	8922.77	193.504	21.807	193.146	23.034	9.206	12.782	15.626	9.249	8192	-8191	8192	8192	254	
77171.133	1	1	0	0	4629.8	4963.74	4441.03	5.32205	3556.97	1662.61	526.412	5220.56	6872.35	8004.13	6702.2	60.899	5138.24	2617.67	920.721	8989.33	193.865	21.711	192.992	334.314	9.092	13.206	12.641	9.925	8192	-8191	8192	8192	254	
77171.133	1	1	0	0	4635.35	5001.66	4391.83	11.0468	3518.26	1654.14	492.821	5180.19	6861.58	8011.91	6720.75	55.4135	5165.18	2633.16	896.423	8921.03	194.063	22.039	193.260	14.254	10.141	13.404	16.091	10.119	8192	-8191	8192	8192	254	
77171.180	1	1	0	0	4686.18	4877.97	4388.87	8.83519	3524.41	1679.57	517.648	5132.51	6884.56	7967.94	6699.98	60	5105.16	2617.64	911.827	8892.88	194.501	22.386	192.929	359.734	8.823	13.342	13.068	9.018	8192	-8191	8192	8192	254	
77171.227	1	1	0	0	4637.07	4911.8	4420.14	6.22576	3547.52	1647.21	527.465	5119.92	6862.42	7962.16	6713.04	55.5096	5151.34	2625.02	935.957	8914.4	193.602	22.261	192.740	3.386	9.049	13.838	17.312	9.389	8192	-8191	8192	8192	254	
77171.273	1	1	0	0	4604.9	4887.14	4450.69	6.05657	3495.23	1686.01	510.713	5080.86	6803.85	7938.45	6731.94	57.3798	5123.83	2632.77	902.394	8822.99	193.946	22.376	192.679	122.588	8.470	12.150	14.177	9.948	8192	-8191	8192	8192	254	
77171.344	1	1	0	0	4645.63	4918.27	4382.77	9.24592	3556.03	1663.7	542.928	5196.95	6879.51	7941.46	6644	55.0769	5124	2647.97	930.279	8897.69	194.289	22.787	193.462	47.218	9.082	12.059	19.153	10.016	8192	-8191	8192	8192	254	
77171.398	1	1	0	0	4636.99	4994.24	4353.74	10.1774	3471.88	1629.64	512.345	5143.39	6856.24	7963.25	6641.44	60.5096	5106.08	2612.8	914.096	8904.55	193.551	22.480	193.767	28.373	9.387	12.546	15.451	9.233	8192	-8191	8192	8192	254	
77171.445	1	1	0	0	4626.76	4940.24	4406.18	5.80162	3535.37	1641.46	510.236	5140.47	6820.72	7921.5	6670.37	58.1827	5117.42	2611.04	902.995	8916.12	193.589	21.845	192.942	10.415	9.918	12.301	15.754	10.280	8192	-8191	8192	8192	254	
77171.492	1	1	0	0	4653	4999.24	4300.76	7.36963	3517.26	1675.37	527.879	5160.63	6833.31	8016.21	6657.58	58.4423	5135.1	2618.29	931.481	8916.32	193.791	22.798	192.537	358.011	9.475	12.590	14.396	9.431	8192	-8191	8192	8192	254	
77171.539	1	1	0	0	4660.28	4910.6	4390.32	8.15262	3495.59	1684.54	532.92	5165.26	6836	7971.73	6672.15	57.8942	5095.99	2639.21	934.534	8984.67	193.831	21.815	192.205	54.167	8.231	12.948	14.566	9.316	8192	-8191	8192	8192	254	
77171.586	1	1	0	0	4679.33	4918.28	4347.63	12.0963	3534.74	1651.53	519.05	5152.12	6878.25	7966.65	6651.43	57.4856	5159.02	2607.2	917.034	8927.19	194.583	21.649	192.262	76.890	9.499	13.180	16.608	9.522	8192	-8191	8192	8192	254	
77171.656	1	1	0	0	4699.84	5054.07	4363.75	1.82355	3616.22	1685.15	521.69	5155.87	6931.99	8007.36	6673.79	60.3654	5157.92	2639.69	932.24	8935	193.934	21.983	192.272	33.764	9.385	13.599	13.140	9.973	8192	-8191	8192	8192	254	
77171.711	1	1	0	0	4676.74	4916.04	4424.59	9.18346	3488.28	1646.64	530.303	5118.97	6921.36	7960.06	6694.12	58.2692	5097	2624.16	928.221	8897.76	193.409	21.661	192.876	358.570	9.595	14.509	17.390	8.868	8192	-8191	8192	8192	254	
77171.758	1	1	0	0	4728.32	4927.55	4393.35	13.1521	3508.27	1684.04	513.802	5163.48	6931.03	7975.01	6661.73	59.6058	5129.82	2639.33	917.793	8949.5	194.410	22.080	192.528	61.537	9.785	11.866	14.792	9.455	8192	-8191	8192	8192	254	
77171.805	1	1	0	0	4620.64	4926.33	4453.29	5.38499	3549.72	1643.52	522.827	5168.01	6862.12	7978.56	6708.1	56.5048	5139.51	2607.12	930.923	8937.12	193.358	22.115	193.576	74.033	9.455	12.995	16.036	9.838	8192	-8191	8192	8192	254	
77171.852	1	1	0	0	4649.14	4940.75	4437.53	5.62809	3494.23	1660.61	523.864	5174.18	6870.58	7979.48	6722.23	60.9231	5118.3	2623.47	920.452	8907.28	193.433	21.923	193.682	102.922	10.601	12.992	17.196	9.990	8192	-8191	8192	8192	254	
77171.898	1	1	0	0	4621.36	4904.64	4437.31	9.09085	3534.62	1643.89	526.98	5215.01	6795.05	7984.66	6727.01	57.2548	5140.18	2636.46	928.923	8952.15	194.350	22.432	193.065	33.010	9.472	13.384	16.440	8.526	8192	-8191	8192	8192	254	
77171.898	1	1	0	0	4612.6	4840.99	4380.11	5.81232	3490.14	1683.83	510.221	5138.65	6853.14	7901.77	6680.09	71.1394	5128.23	2632.08	928.904	8924.28	194.763	22.104	193.474	144.271	8.739	13.429	17.881	9.158	8192	-8191	8192	8192	254	
77171.945	1	1	0	0	4656.64	4888.09	4356.36	3.28573	3613.65	1627.17	497.734	5139.5	6909.25	7910.59	6665.11	79.774	5208.48	2619.87	921.221	8946.23	194.191	22.479	193.299	318.074	9.315	11.335	18.386	9.977	8192	-8191	8192	8192	254	
77172.016	1	1	0	0	4655.59	4914.59	4394.35	11.5237	3526.83	1684.28	497.033	5234.06	6900.01	7992.49	6689.13	79.8269	5157.72	2682.31	917.216	8987.53	193.622	22.441	193.745	28.195	9.192	12.150	12.885	9.789	8192	-8191	8192	8192	254	
77172.070	1	1	0	0	4602.23	4931.03	4390.71	1.74746	3511.39	1647.17	529.624	5217.3	6894.72	7988.46	6680.27	84.0048	5121.08	2659.54	950.274	8963.26	194.715	22.155	193.304	5.964	9.734	12.461	15.313	9.297	8192	-8191	8192	8192	254	
77172.117	1	1	0	0	4722.29	4884.04	4364.49	11.763	3577.39	1654.47	504.282	5164.95	6931	7949.22	6712.26	89.0625	5181.65	2646	938.582	8968.09	194.452	22.634	192.452	16.001	9.623	12.356	16.495	9.491	8192	-8191	8192	8192	254	
77172.164	1	1	0	0	4625.18	4928.19	4431.05	11.3663	3550.41	1687.05	525.79	5092.59	6866.02	8003.83	6759.32	93.8269	5187.65	2693.88	948.702	8926.01	194.189	22.267	192.652	11.103	9.556	11.784	18.682	9.000	8192	-8191	8192	8192	254	
77172.211	1	1	2	0	4662.2	4967.61	4328.9	7.13374	3542.68	1666.98	526.65	5109.2	6889.56	8049.34	6688.28	102.01	5180.34	2673.68	967.716	8966.05	194.138	22.266	192.786	289.927	9.023	12.467	17.016	9.617	8192	-8191	8192	8192	254	
77172.258	1	1	0	0	4686.47	4939.03	4344.46	9.54996	3527.04	1684.28	526.75	5132.09	6919.02	8038.21	6725.09	114.875	5181.53	2702.12	1014.81	8938.9	194.071	22.470	192.413	66.575	9.472	12.799	14.683	9.127	8192	-8191	8192	8192	254	
77172.305	1	1	0	0	4620.45	4884.82	4408.01	11.7699	3509.58	1604.99	528.838	5201.71	6941.89	7995.87	6751.6	147.404	5224.8	2694.75	1037.65	9117.06	193.964	22.753	193.497	25.592	9.241	13.062	16.371	9.864	8192	-8191	8192	8192	254	
77172.359	1	1	0	0	4607.74	4943.44	4425.39	13.1583	3583.01	1681.9	510.129	5155.4	6938.19	8111.5	6822.68	194.058	5285.57	2754.92	1038.94	9061.3	193.146	21.634	192.481	65.860	9.267	12.936	17.067	9.316	8192	-8191	8192	8192	254	
77172.406	1	1	0	0	4751.96	4968.18	4462.01	8.86577	3548.54	1629.94	509.858	5094.84	7037.66	8085.08	6760.13	158.803	5199.41	2710.22	978.822	8970.31	194.021	22.254	192.727	2.555	10.138	12.885	19.714	9.439	8192	-8191	8192	8192	254	
77172.453	1	1	0	0	4666.77	5000.51	4419.4	16.7809	3571.13	1612.51	527.239	5171.9	6952.55	8079.51	6767.19	137.87	5210.18	2685.05	991.812	8987.2	193.805	22.669	192.150	85.853	8.656	13.020	14.178	10.214	8192	-8191	8192	8192	254	
77172.523	1	1	0	0	4693.77	4958.84	4348.65	15.8064	3522.4	1647.32	520.594	5120.2	6967.44	8071.58	6717.5	118.712	5177.36	2670.23	975.231	8992.72	193.602	21.749	193.314	359.389	9.506	12.724	15.981	9.316	8192	-8191	8192	8192	254	
77172.570	1	1	0	0	4596.71	4842.22	4437.92	10.8092	3506.9	1654.73	512.628	5088.04	6897.31	7958.78	6720.5	103.163	5151.83	2660.08	965.971	8991.46	193.808	21.785	192.421	26.448	9.816	12.079	15.965	9.075	8192	-8191	8192	8192	254	
77172.617	1	1	0	0	4627.78	4954.61	4383.61	14.3552	3529.97	1687.5	493.609	5176.41	6884.07	8008.39	6688.27	104.49	5184.32	2663.42	950.13	8972.84	193.303	23.129	192.282	79.852	9.907	12.495	15.752	9.441	8192	-8191	8192	8192	254	
77172.664	1	1	0	0	4684.6	4949.38	4418.33	14.9563	3554.25	1640.25	521.649	5123.72	6951.14	8033.86	6746.07	112.803	5205.92	2660.45	978.808	8972.91	194.521	22.152	192.809	318.643	10.033	13.627	16.474	9.242	8192	-8191	8192	8192	254	
77172.672	1	1	0	0	4703.2	4892.3	4415.09	12.1293	3535.53	1671.88	516.34	5118.24	6938.49	8020.77	6743.06	126.543	5197.94	2687.55	988.668	8962.21	194.078	22.419	192.675	329.659	9.464	13.260	17.495	8.624	8192	-8191	8192	8192	254	
77172.719	1	1	0	0	4645.71	4937.62	4399.96	10.9025	3559.19	1667.29	524.693	5182.34	6968.38	8055.42	6763.64	122.63	5184.36	2674.86	988.178	9024.86	193.928	22.199	193.025	345.219	9.097	12.636	15.728	8.695	8192	-8191	8192	8192	254	
77172.766	1	1	0	0	4709.48	4870.96	4435.17	5.70599	3456.89	1626.04	524.353	5106.89	6927.91	7991.51	6739.72	112.389	5136.7	2697.64	980.418	8926	193.270	22.794	192.909	159.093	9.934	14.497	15.469	9.206	8192	-8191	8192	8192	254	
77172.812	1	1	0	0	4603.75	4952.22	4370.28	5.29029	3499.66	1685.76	525.031	5119.48	6871.86	8032.92	6696.72	111.74	5172.77	2691.04	961.611	8949.83	193.817	22.302	193.364	39.616	10.478	12.879	15.896	10.018	8192	-8191	8192	8192	254	
77172.883	1	1	0	0	4659.79	4897.69	4402.12	13.0806	3595.28	1665.09	520.833	5097.66	6909.08	8027.67	6720.29	120.178	5248.31	2695.67	997.168	8965.96	194.564	21.569	193.592	42.466	9.957	12.309	13.912	9.732	8192	-8191	8192	8192	254	
77172.930	1	1	0	0	4650.31	4894.69	4391.83	3.28385	3552.64	1660.82	508.362	5111.73	6942.64	8043.57	6699.68	121.337	5201.04	2683.35	979.63	8984.75	194.173	22.895	193.154	76.475	8.678	12.219	13.366	8.975	8192	-8191	8192	8192	254	
77172.977	1	1	0	0	4649.21	4947.35	4328.54	9.22335	3582.82	1684.37	532.826	5222.58	6914.76	8037.25	6729.5	125.245	5217.02	2713.51	999.938	9068.39	194.585	22.822	192.652	12.948	9.336	13.256	15.960	8.805	8192	-8191	8192	8192	254	
77173.023	1	1	0	0	4659	4887.37	4382.3	7.39333	3478.69	1648.8	518.515	5201.14	6953.54	8014.72	6798.9	146.976	5213.05	2728.38	1005.53	9074.69	194.543	22.163	193.306	64.088	8.992	12.872	15.953	8.713	8192	-8191	8192	8192	254	
77173.078	1	1	0	0	4668.69	4891.45	4407.63	5.23927	3606.72	1709.36	515.177	5161.91	6945.92	7973.12	6790.3	155.812	5243.2	2718.88	1019.05	9019.74	194.266	21.544	192.961	18.325	9.503	12.391	14.820	8.419	8192	-8191	8192	8192	254	
77173.125	1	1	0	0	4761.7	4854.72	4337.76	15.8187	3594.87	1649.22	527.94	5127.03	7042.16	8053.49	6738.77	160.649	5276.65	2723.92	1050.53	9020.87	194.334	22.108	192.604	69.099	9.787	12.934	16.727	9.231	8192	-8191	8192	8192	254	
77173.195	1	1	0	0	4629.74	4916.64	4376.39	9.96632	3529.65	1680.85	524.551	5164.81	6982.72	8055.48	6720.4	169.812	5247.34	2748.47	1044.14	9031.88	195.124	21.532	192.942	301.047	8.611	12.444	14.903	9.072	8192	-8191	8192	8192	254	
77173.242	1	1	0	0	4670.77	4937.07	4360.67	9.10379	3510.17	1622.28	511.884	5143.19	7001.29	8088.29	6774.47	157.144	5216.13	2712.07	1024.47	9024.81	193.492	22.250	193.015	31.829	9.131	13.340	18.247	9.232	8192	-8191	8192	8192	254	
77173.289	1	1	0	0	4724.06	4938.47	4376.13	17.5987	3552.49	1700.25	492.235	5155.23	7015.44	8066.16	6769.51	150.168	5272.42	2780.79	1011.82	9040.77	194.122	23.386	192.489	108.246	9.370	12.876	15.992	9.908	8192	-8191	8192	8192	254	
77173.344	1	1	0	0	4640.21	4905.02	4346.98	10.6881	3547.13	1625.27	511.03	5145.84	6942.27	8018.56	6734.61	153.995	5228.58	2713.99	1000.68	9037.62	194.096	22.470	192.293	61.776	8.469	11.575	16.524	9.652	8192	-8191	8192	8192	254	
77173.391	1	1	0	0	4626.82	4856.73	4409.34	5.93427	3510.45	1659.19	515.305	5148.25	6985.55	8089.18	6801.91	169.096	5198.35	2715.92	1018.74	8988.86	193.219	21.714	193.337	0.815	9.274	12.097	15.885	9.785	8192	-8191	8192	8192	254	
77173.438	1	1	0	0	4738.5	4887.58	4328.1	10.9834	3538.55	1629.49	469.179	5019.55	7031.8	8060.64	6756.46	163.577	5186.99	2682.77	991.457	8824.9	194.171	22.361	193.027	28.016	9.069	13.978	15.961	9.965	8192	-8191	8192	8192	254	
77173.438	1	1	0	0	4529.77	4758.47	4216.94	7.03593	3418.06	1643.05	523.111	5110.33	6795.47	7865.6	6626	171.639	5118.03	2713.18	1016.32	8922.11	193.824	22.664	193.117	2.156	9.137	13.591	19.508	9.929	8192	-8191	8192	8192	254	
77173.484	1	1	0	0	4557.86	4810.91	4248.38	8.50203	3498.31	1602.73	481.044	5080.6	6829.69	7909.41	6590.59	185.168	5122.64	2684.59	1007.13	8895.43	194.966	22.801	192.529	17.731	9.695	14.523	14.717	8.384	8192	-8191	8192	8192	254	
77173.555	1	1	0	0	4535.59	4893.27	4282.48	1.08563	3425.71	1619.14	503.903	5046.37	6827.24	7887.87	6627.67	187.62	5149.09	2697.08	1034.6	8886.26	193.804	22.127	192.581	231.105	9.452	13.557	18.133	9.074	8192	-8191	8192	8192	254	
77173.602	1	1	0	0	4545.72	4772.02	4341.34	12.1693	3443.39	1582.48	523.349	5021.64	6864	7869.59	6710.35	205.654	5169.26	2720.18	1081.64	8864.95	194.098	22.166	193.218	310.532	9.943	12.841	13.725	8.545	8192	-8191	8192	8192	254	
77173.648	1	1	0	0	4450.57	4255.58	3379.49	7.78708	1549.38	502.025	92.4231	546.524	6633.87	7084.34	5298.56	201.793	2419.25	937.986	324.846	1106.9	194.197	21.977	193.909	306.406	7.690	12.602	16.684	8.823	8192	-8191	8192	8192	254	
77173.703	1	1	0	0	156.693	75.8035	45.3617	4.13298	12.8772	8.153	11.8742	4.11143	398.793	267.683	219.183	148.168	166.635	151.207	134.62	159.601	193.205	25.712	181.998	276.572	36.477	68.596	49.068	95.074	8192	-8191	8192	8192	254	
77173.750	1	1	0	0	10.252	74.4084	27.2825	65.3753	29.4209	44.4838	20.2469	44.916	251.188	1829.58	10486.2	10108.8	9376.78	8192.25	8000.22	8124.42	147.864	120.172	63.345	231.988	47.759	253.856	238.230	10.852	8192	-8191	8192	8192	254	
77173.797	1	1	0	0	24.2858	60.6066	52.8943	20.9915	80.7061	43.501	52.259	31.6693	8432.64	8479.67	8684.76	9050.23	9364.65	9533.97	9893.25	10459	160.720	204.818	67.892	337.565	175.502	302.662	179.918	250.195	8192	-8191	8192	8192	254	
77173.844	1	1	0	0	11.4522	81.7873	91.5882	69.9454	34.7199	57.748	68.4926	92.6111	10588.5	10772.5	10921	11031.4	11050.8	11047.1	11342.8	11877.7	323.853	52.425	330.076	144.347	317.581	322.889	44.759	123.363	8192	-8191	8192	8192	254	
77173.891	1	1	0	0	42.3472	95.0006	48.7571	112.003	97.4367	104.443	45.0288	91.8701	12366.6	12890.9	13399.7	14412.1	15035.1	16169.3	17845.5	17973	192.086	245.039	159.210	200.087	3.740	67.971	141.349	266.350	8192	-8191	8192	8192	254	
77173.961	1	1	0	65536	39.429	107.231	22.2536	162.525	103.187	64.458	149.449	137.052	18274.9	18667	19054.6	19103.1	19420.7	20407	21761.1	23912.9	314.438	136.913	317.366	12.841	55.935	306.159	204.264	18.750	8192	-8191	8192	8192	254	
77174.008	1	1	0	65536	116.499	55.0536	87.7323	120.718	116.233	82.8586	78.8144	55.3772	29350.4	30385.4	24750.6	23442.7	26233.1	28271.5	22779.8	19517.5	230.946	282.234	315.994	359.740	108.329	242.949	348.777	79.822	8192	-8191	8192	8192	254	
77174.062	1	1	0	65536	53.6944	136.966	0	83.3911	185.718	103.034	130.378	0	22049.5	27527.8	32767	31838.7	19521.8	20507	29908.4	32767	36.805	137.357	180.000	261.795	301.884	140.423	204.855	180.000	8192	-8191	8192	8192	254	
77174.109	1	1	0	65536	0	0	0	0	0	0	10.9904	97.4933	32767	32767	32767	32767	32767	32767	32761.5	31061	180.000	180.000	180.000	180.000	180.000	180.000	315.000	336.029	8192	-8191	8192	8192	254	
77174.156	1	1	0	65536	95.9023	110.604	102.724	37.6291	128.013	75.4261	62.3957	35.2096	26655.7	24020.9	23256.5	22926	21353.7	21485.7	24978.3	30596.4	315.272	292.014	135.829	29.245	303.555	113.835	292.241	83.196	8192	-8191	8192	8192	254	
77174.203	1	1	0	65536	7.0403	66.6322	183.721	108.928	116.584	16.7937	19.6827	18.7283	32762.5	32603.2	26933.8	14643.5	4375.48	775.702	697.543	693.572	311.460	309.528	335.976	274.836	281.834	322.901	313.265	193.484	8192	-8191	8192	8192	254	
77174.203	1	1	0	0	16.671	8.7476	26.0772	5.78195	15.9478	11.365	22.8721	4.57379	696.034	727.452	737.952	735.894	765.188	785.567	779.043	811.875	321.123	190.979	23.950	177.088	342.220	210.082	15.317	194.756	8192	-8191	8192	8192	254	
77174.250	1	1	0	0	9.83409	17.0155	18.9922	25.8118	9.22208	16.1545	25.3919	12.4064	841.654	861.163	871.716	892.635	900.822	944.678	920.188	936.495	197.241	6.712	293.075	119.861	136.129	262.932	7.499	294.027	8192	-8191	8192	8192	254	
77174.297	1	1	0	0	13.3188	27.8656	22.6798	11.759	10.6466	14.4777	28.0184	17.7968	956.76	969.659	972.75	1007.22	1001.51	1025.08	1063.75	1075.51	275.498	45.574	57.618	260.481	357.367	349.079	250.471	78.324	8192	-8191	8192	8192	254	
77174.352	1	1	0	0	13.2239	13.6247	20.2959	26.8555	13.3928	14.4637	15.9318	23.3139	1107.44	1115.88	1121.58	1137.39	1171.43	1162.23	1149.41	1173.89	1.589	89.253	222.971	24.538	301.763	183.337	56.776	95.051	8192	-8191	8192	8192	254	
77174.422	1	1	0	0	29.2957	30.2805	28.1818	28.7184	25.0187	10.4257	45.0347	9.13208	1179.86	1168.04	1189.71	1164.18	1175.82	1176.41	1172.94	1174.36	242.430	127.887	281.491	81.051	104.006	349.650	297.067	141.186	8192	-8191	8192	8192	254	
77174.469	1	1	0	0	19.7505	10.5	1.30233	33.6071	38.3336	91.5296	1.19229	37.2111	1223.74	1228.82	1213.84	1241.88	1265.34	1819.9	4989.01	4992.61	110.379	140.765	295.005	243.119	97.510	126.197	199.089	303.284	8192	-8191	8192	8192	254	
77174.516	1	1	0	0	60.3705	21.6094	64.1882	84.0515	49.0243	35.5804	46.6969	19.491	4980.59	5017.24	4981.16	4907.57	4866.9	4538.24	3991.64	3320.16	82.843	198.262	142.645	345.360	328.121	281.530	180.672	288.836	8192	-8191	8192	8192	254	
77174.562	1	1	0	0	25.8049	24.41	41.3753	21.8489	9.786	13.989	14.3425	7.08428	2475.12	1676.09	1062.6	715.986	534.394	388.269	303.269	265.562	236.690	310.205	263.661	220.227	68.776	323.485	66.755	312.119	8192	-8191	8192	8192	254	
77174.609	1	1	0	0	7.7499	10.0959	3.99059	3.93599	5.884	3.18418	10.1478	17.7878	238.529	232.462	219.846	206.197	207.913	205.149	199.894	187.447	40.373	204.624	301.259	128.704	219.897	237.151	194.445	335.313	8192	-8191	8192	8192	254	
77174.656	1	1	0	0	4.11649	2.21066	5.63121	5.8027	11.0109	4.28688	4.81387	18.0259	194.649	184.841	184.087	182.332	172.37	167.452	171.236	167.236	133.009	17.233	285.306	276.734	37.779	117.921	317.208	313.318	8192	-8191	8192	8192	254	
77174.703	1	1	0	0	10.2234	1.85291	11.8773	1.79424	5.45033	9.19634	8.96562	82.5332	160.784	159.163	163.038	158.885	163.808	168.077	169.923	305.413	244.059	241.959	260.729	101.231	261.409	291.417	338.269	16.562	8192	-8191	8192	8192	254	
77174.758	1	1	0	0	131.353	373.789	651.875	2.13432	814.313	397.799	117.27	1257.14	384.51	815.606	1279.08	320.49	1515.17	969.644	546.851	2484.37	198.975	28.537	198.779	158.334	16.185	21.526	22.312	14.611	8192	-8191	8192	8192	254	
77174.828	1	1	0	0	1049.92	1101.84	1011.49	7.36673	822.573	389.492	109.111	1249.81	1869.77	2069.86	1837.63	336.558	1537.92	955.399	555.548	2502.1	200.910	27.211	198.782	324.510	14.485	15.055	26.779	14.124	8192	-8191	8192	8192	254	
77174.875	1	1	0	0	1047.87	1077.05	973.238	12.2217	846.403	412.256	140.307	1292.47	1895.7	2104.41	1859.54	356.505	1552.18	975.486	557.178	2613.84	200.047	27.256	196.878	226.898	15.465	19.771	22.797	15.554	8192	-8191	8192	8192	254	
77174.922	1	1	0	0	1087.48	1139.43	1027.92	14.979	888.444	433.185	111.78	1302.13	1935.13	2196.05	1915.52	357.418	1629.32	1031.61	573.394	2658.75	200.447	28.689	197.630	103.512	13.368	14.651	26.570	12.654	8192	-8191	8192	8192	254	
77174.969	1	1	0	0	1137.97	1171.49	1028.49	16.3603	891.474	444.694	129.512	1357.92	2019.93	2243.6	1948.36	366.183	1652.6	1033.51	584.577	2726	201.796	27.959	197.918	115.559	15.936	19.366	20.976	15.097	8192	-8191	8192	8192	254	
77174.969	1	1	0	0	1147.29	1183.88	1060.13	10.808	918.682	431.087	130.716	1357.29	2046.9	2276.35	1978.5	365.659	1669.28	1064.97	594.784	2725.04	199.788	28.515	197.341	116.700	15.911	17.816	20.153	14.854	8192	-8191	8192	8192	254	
77175.016	1	1	0	0	1150.1	1165.59	1055.74	9.29236	900.671	433.974	124.698	1344.82	2054.14	2267.03	1951.62	357.875	1641.18	1010.86	546.163	2616.24	200.215	27.777	200.053	287.355	13.630	20.981	17.187	13.523	8192	-8191	8192	8192	254	
77175.070	1	1	0	0	1118.2	1191.04	1019.12	6.84136	839.866	383.271	136.437	1228.85	1917.97	2169.2	1844.2	288.385	1486.66	885.683	456.457	2403.73	199.032	27.254	200.190	110.579	14.007	18.862	19.098	14.717	8192	-8191	8192	8192	254	
77175.117	1	1	0	0	1003.63	1026.92	886.377	3.18535	766.772	364.939	115.571	1182.11	1735.78	1866.5	1586.18	208.663	1327.61	775.413	393.144	2221.5	199.739	27.563	200.288	354.959	14.404	19.080	22.376	14.173	8192	-8191	8192	8192	254	
77175.188	1	1	0	0	1017.58	1018.04	912.832	1.50948	790.031	379.238	123.238	1188.58	1637.57	1808.27	1534.08	160.159	1282.74	738.236	346.615	2172.36	199.391	29.207	199.024	97.653	15.565	19.464	17.464	13.944	8192	-8191	8192	8192	254	
77175.234	1	1	0	0	998.285	1019.21	890.962	12.4654	747.38	368.87	118.088	1141.92	1592.79	1752.9	1504.94	131.553	1243.75	709.505	325.832	2145.47	200.268	28.983	198.348	350.135	13.122	19.720	25.907	13.962	8192	-8191	8192	8192	254	
77175.281	1	1	0	0	959.894	987.704	909.104	6.44681	802.378	368.487	126.221	1195.26	1554.83	1716.73	1472.7	117.885	1228.18	703.942	313.774	2150.6	200.109	27.796	199.867	203.296	15.971	21.418	23.699	15.483	8192	-8191	8192	8192	254	
77175.328	1	1	0	0	988.003	1009.33	917.072	6.91456	789.584	380.079	106.459	1143.69	1535.51	1729.95	1492.13	108.812	1229.03	687.543	287.385	2102.3	198.458	25.560	199.159	24.784	14.373	16.853	21.761	15.621	8192	-8191	8192	8192	254	
77175.383	1	1	0	0	1000.55	999.867	902.424	8.8859	773.849	373.233	131.153	1227.98	1526.62	1731.43	1478.17	106.553	1200.38	690.885	307.01	2153.03	199.700	29.208	199.536	31.820	14.389	16.463	22.131	14.696	8192	-8191	8192	8192	254	
77175.430	1	1	0	0	1005.12	1023.47	894.877	8.31558	780.932	382.127	114.872	1187.41	1537.88	1710.27	1453.39	105.312	1232.98	699.048	301.582	2123.12	200.240	27.153	198.798	27.482	15.601	21.641	20.778	14.180	8192	-8191	8192	8192	254	
77175.477	1	1	0	0	974.536	1013.8	862.906	4.23516	771.609	386.892	114.805	1199.54	1518.96	1724.61	1450.83	109.163	1225.17	698.659	302.673	2127.89	199.677	27.047	197.897	354.342	14.913	16.996	20.800	15.052	8192	-8191	8192	8192	254	
77175.523	1	1	0	0	944.995	1025.48	891.581	5.90574	761.503	360.827	117.449	1190.38	1489.16	1735.79	1464.33	104.947	1201.87	692.038	311.798	2119.33	201.998	26.724	200.410	75.118	14.168	19.892	20.624	15.829	8192	-8191	8192	8192	254	
77175.594	1	1	0	0	948.309	1001.52	898.697	12.5986	803.285	372.893	120.482	1176.62	1514.29	1719.95	1475.37	104.558	1229.31	687.5	302.654	2139.64	197.884	28.353	199.676	34.020	15.976	18.804	19.548	16.049	8192	-8191	8192	8192	254	
77175.641	1	1	0	0	939.572	999.668	898.603	8.98987	765.175	372.328	119.215	1182.31	1518	1689.41	1461.72	114.755	1215.76	732.885	363.466	2182.45	199.715	29.075	197.660	217.775	14.170	19.633	26.245	15.450	8192	-8191	8192	8192	254	
77175.688	1	1	0	0	962.511	983.313	904.953	5.57243	771.324	374.449	117.249	1193.13	1545.21	1736.11	1497.44	138.774	1233.59	724.947	320.231	2124.52	199.443	28.511	198.866	51.271	14.774	19.318	24.820	14.139	8192	-8191	8192	8192	254	
77175.742	1	1	0	0	952.237	992.982	883.385	6.41414	747.269	382.245	119.528	1161.35	1517.26	1714.15	1485.38	112.769	1219.29	694.284	299.644	2117.42	199.658	29.787	198.692	17.506	14.677	15.014	21.537	15.541	8192	-8191	8192	8192	254	
77175.742	1	1	0	0	977.005	989.294	895.533	3.38789	766.722	383.868	114.692	1101.48	1512.65	1709.33	1447.91	100.337	1194.76	691.803	302.875	2074.56	202.423	28.253	197.994	229.630	13.439	21.057	25.162	13.991	8192	-8191	8192	8192	254	
77175.789	1	1	0	0	940.535	983.296	935.319	3.16088	773.025	370.708	127.904	1167.31	1512.62	1699.14	1477.41	105.76	1211.55	677.976	299.269	2110.78	201.123	26.893	197.615	85.683	13.669	17.647	23.949	16.379	8192	-8191	8192	8192	254	
77175.836	1	1	0	0	968.685	997.135	921.214	3.538	763.144	386.118	118.969	1119.13	1501.46	1688.45	1478.11	87.0673	1201.47	671.365	296.75	2086.22	199.743	28.807	198.623	146.300	14.934	17.220	16.262	13.676	8192	-8191	8192	8192	254	
77175.883	1	1	0	0	953.958	999.214	856.153	7.42749	786.599	360.748	110.456	1156.69	1496.62	1695.74	1434.42	87.649	1214.75	679.971	292.683	2091.39	199.507	28.773	197.820	8.591	12.705	17.678	22.096	14.919	8192	-8191	8192	8192	254	
77175.953	1	1	0	0	973.445	973.222	928.51	12.5832	759.407	402.626	119.38	1174.78	1503.68	1675.35	1465.32	89.6106	1191.84	676.163	292.601	2116.98	200.551	29.729	198.930	80.333	14.489	18.267	20.972	14.781	8192	-8191	8192	8192	254	
77176.008	1	1	0	0	975.501	990.729	887.414	4.94216	765.222	367.727	123.081	1145.08	1497.71	1682.57	1435.25	95.0385	1193.86	673.457	288.774	2106.83	199.798	30.287	197.704	49.635	14.551	17.582	24.756	13.744	8192	-8191	8192	8192	254	
77176.055	1	1	0	0	968.744	1014.61	888.196	9.69919	765.05	359.472	128.759	1168.51	1499.37	1696.9	1440.38	98.7308	1191.55	670.327	288.524	2108.02	200.282	28.835	197.565	204.936	16.582	16.548	19.921	14.006	8192	-8191	8192	8192	254	
77176.102	1	1	0	0	952.852	1004.96	923.826	5.84163	768.544	374.917	115.161	1161.67	1473.73	1666.08	1467.02	89.399	1178.48	670.913	284.957	2090.63	200.805	28.765	199.877	339.492	14.466	19.403	24.142	14.017	8192	-8191	8192	8192	254	
77176.148	1	1	0	0	950.81	1003.11	895.653	9.76259	793.683	363.798	116.311	1153.53	1508.14	1696.22	1453.39	87.4952	1200.2	662.413	274.096	2099.17	200.308	28.016	197.801	17.162	14.881	20.102	17.949	15.264	8192	-8191	8192	8192	254	
77176.195	1	1	0	0	943.945	992.572	941.717	7.31173	734.065	392.721	117.902	1183.28	1494.91	1686.4	1470.45	88.5625	1171.94	691.404	274.678	2113.39	200.667	28.385	199.485	345.286	15.589	18.040	30.550	14.406	8192	-8191	8192	8192	254	
77176.242	1	1	0	0	959.356	982.267	935.716	6.14674	780.744	382.714	133.99	1175.24	1502.77	1676.94	1476.44	91.6442	1195	671.471	284.562	2129.13	200.652	29.042	197.053	34.150	16.504	20.325	27.851	15.385	8192	-8191	8192	8192	254	
77176.289	1	1	0	0	963.955	979.655	905.015	1.6202	731.681	390.215	122.092	1133.43	1496.35	1680.68	1445.67	93.9519	1167.59	693.837	281.351	2081.6	200.570	29.078	199.616	89.140	14.013	20.101	22.152	14.281	8192	-8191	8192	8192	254	
77176.359	1	1	0	0	971.22	995.608	927.984	1.53785	775.074	348.777	117.252	1164.83	1511.72	1689.36	1451.38	86.5673	1193.69	667.178	290.606	2085.6	199.767	28.970	198.159	292.499	14.415	18.824	20.202	16.109	8192	-8191	8192	8192	254	
77176.414	1	1	0	0	979.549	999.803	921.555	2.5553	765.438	371.194	123.426	1177.34	1490.09	1691.33	1441.75	87.8077	1197.67	669.019	287.106	2117.96	199.902	29.680	198.658	116.346	12.989	18.286	17.033	14.164	8192	-8191	8192	8192	254	
77176.461	1	1	3	0	942.938	973.482	890.065	5.06683	772.879	387.844	117.476	1148.81	1480.16	1659.57	1426.24	72.2788	1175.49	644.918	268.385	2064.24	200.875	29.149	198.896	63.033	16.385	16.025	18.085	15.539	8192	-8191	8192	8192	254	
77176.508	1	1	0	0	992.689	995.43	866.476	4.7253	761.891	359.807	122.729	1159.6	1481.72	1640.94	1390.86	54.101	1147.64	635.635	238.423	2048.29	201.191	28.706	201.267	337.676	14.164	18.964	25.848	14.552	8192	-8191	8192	8192	254	
77176.508	1	1	0	0	967.464	1014.91	900.612	7.15661	766.892	366.912	118.451	1133.62	1462.88	1637.07	1398.39	50.9038	1144.16	624.861	245.966	2050.85	199.615	28.543	197.864	301.038	16.317	16.287	22.466	15.011	8192	-8191	8192	8192	254	
77176.555	1	1	0	0	968.932	1010.3	890.979	5.75516	778.906	389.243	104.521	1187.33	1456.76	1649.76	1392.59	47.4135	1141.46	631.798	240.399	2074.18	200.153	28.935	198.417	271.346	14.183	19.264	24.319	15.769	8192	-8191	8192	8192	254	
77176.625	1	1	0	0	949.441	1002.16	883.07	2.7225	773.022	385.714	119.724	1183.87	1444.04	1658.97	1422.15	48.3558	1158.1	645.832	253.736	2075.67	200.581	29.371	198.282	5.825	15.459	15.822	16.509	13.146	8192	-8191	8192	8192	254	
77176.672	1	1	0	0	963.789	971.912	899.08	4.70203	750.489	370.594	117.936	1152.93	1465.85	1647.83	1433.53	74.6442	1164.74	678.923	280.13	2082.52	199.084	28.276	199.581	242.251	13.155	15.446	18.504	15.488	8192	-8191	8192	8192	254	
77176.727	1	1	0	0	984.492	958.994	947.953	6.15165	769.263	361.823	117.143	1167.76	1506.77	1677.92	1487.6	87.5096	1205.56	665.476	285.418	2099.83	199.659	29.464	199.420	283.092	16.243	19.574	14.366	14.194	8192	-8191	8192	8192	254	
77176.773	1	1	0	0	980.284	1007.22	915.562	3.07638	788.066	387.648	119.743	1159.7	1501.22	1697.49	1453.82	86.2067	1202.31	685.423	281.726	2089.07	199.897	29.144	199.343	51.236	15.348	14.711	23.661	16.148	8192	-8191	8192	8192	254	
77176.820	1	1	0	0	967.855	1014.74	919.005	6.8082	759.71	384.973	113.152	1179.57	1500.56	1677.73	1459.46	96.6346	1177.59	689.562	279.601	2106.12	200.422	30.891	199.600	108.224	15.394	17.987	16.630	14.878	8192	-8191	8192	8192	254	
77176.867	1	1	0	0	961.667	995.118	926.297	12.1981	742.06	376.443	118.595	1177.44	1484.26	1682.89	1451.11	88.899	1181.03	673.841	285.832	2078.7	200.448	28.655	199.840	117.331	17.262	16.607	25.191	13.505	8192	-8191	8192	8192	254	
77176.914	1	1	0	0	966.942	1001.49	924.444	4.57004	762.691	384.33	128.481	1157.41	1497.22	1680.96	1454.87	85.3462	1179.01	671.01	286.163	2095.81	199.754	29.591	199.267	60.882	13.598	21.811	13.318	15.859	8192	-8191	8192	8192	254	
77176.961	1	1	0	0	950.46	1003.02	943.289	3.5529	756.701	371.141	112.591	1178.45	1465.77	1703.31	1451.8	90	1175.37	663.216	283.38	2109.63	200.993	29.503	198.110	103.897	15.661	16.423	21.529	15.466	8192	-8191	8192	8192	254	
77177.039	1	1	0	0	978.262	994.612	897.032	6.61171	764.258	362.615	127.65	1184.79	1486.76	1680.12	1422.23	76.1971	1162.69	634.077	263.284	2056	200.757	28.306	198.059	274.005	14.599	18.515	18.555	13.216	8192	-8191	8192	8192	254	
77177.086	1	1	0	0	958.273	980.082	896.12	2.56116	729.357	364.346	119.847	1160.72	1460.62	1653.06	1403.16	50.3269	1123.91	619.803	254.438	2030.02	201.291	27.817	198.518	64.327	12.525	16.759	20.543	15.928	8192	-8191	8192	8192	254	
77177.133	1	1	0	0	952.076	1029.82	887.102	1.04593	785.834	353.229	110.882	1131.51	1467.68	1655.42	1411.12	51.25	1152.66	610.231	251.87	2051.88	198.711	27.685	198.013	81.421	16.361	18.321	20.171	15.967	8192	-8191	8192	8192	254	
77177.180	1	1	0	0	939.277	1035.29	895.907	7.04061	767.562	369.399	104.508	1149.69	1457.64	1660.77	1417.09	53.7452	1158.84	620.202	239.365	2044.66	201.130	26.769	198.299	51.325	14.812	19.633	26.307	16.132	8192	-8191	8192	8192	254	
77177.227	1	1	0	0	934.672	1012.46	892.245	3.42045	757.916	387.924	124.533	1160.71	1443.14	1643.37	1411.41	53.5048	1155	626.462	253.034	2039.26	200.152	26.835	199.614	131.919	15.671	17.361	22.800	16.402	8192	-8191	8192	8192	254	
77177.273	1	1	0	0	968.443	988.706	908.396	2.91241	730.436	363.955	114.412	1173.44	1475.98	1636.14	1408	51.7837	1131.45	628.298	249.365	2058.24	200.508	28.455	200.675	225.423	15.222	18.640	22.373	15.390	8192	-8191	8192	8192	254	
77177.273	1	1	0	0	929.069	1038.21	884.545	6.18134	755.606	380.798	124.706	1158.29	1442.76	1670.64	1400.86	54.0625	1138.57	628.024	255.101	2037.01	198.427	28.495	199.263	108.701	15.022	18.175	26.560	13.914	8192	-8191	8192	8192	254	
77177.320	1	1	0	0	969.516	1000.68	904.558	4.69317	734.536	381.47	131.332	1181.14	1469.08	1648.99	1425.42	49.8558	1143.37	635.654	250.226	2071.07	198.912	28.363	197.914	19.103	13.910	20.639	23.837	14.600	8192	-8191	8192	8192	254	
77177.375	1	1	0	0	955.301	977.12	880.221	4.68022	786.673	366.384	118.485	1162.47	1467.24	1629.62	1407.48	53.7452	1160.12	638.976	245.606	2033.23	199.807	27.826	198.621	338.115	16.392	16.823	16.402	13.464	8192	-8191	8192	8192	254	
77177.422	1	1	0	0	948.605	997.192	888.024	5.0676	775.436	368.765	104.967	1154.26	1464.37	1652.46	1410.64	55.3702	1176.56	634.082	245.216	2058.75	199.735	28.419	197.950	146.502	13.353	17.592	24.616	14.101	8192	-8191	8192	8192	254	
77177.492	1	1	0	0	950.455	971.243	897.711	3.89075	775.508	379.718	121.897	1164.94	1458.51	1635.37	1396.28	53.5721	1155.61	633.115	251.495	2024.46	199.997	28.796	198.691	322.814	12.648	17.493	19.521	14.612	8192	-8191	8192	8192	254	
77177.539	1	1	0	0	990.322	958.1	908.428	3.61194	773.779	365.013	119.976	1177.35	1480.49	1637.07	1408.22	51.5337	1159.26	633.827	252.438	2070.2	199.937	28.482	199.074	359.031	14.298	17.483	21.725	14.876	8192	-8191	8192	8192	254	
77177.586	1	1	0	0	951.727	989.93	913.666	1.86636	756.748	380.071	107.147	1134	1460.09	1647.27	1429.92	52.1202	1141.75	635.216	245.053	2030.68	201.439	28.285	198.764	181.863	15.466	17.371	18.632	14.373	8192	-8191	8192	8192	254	
77177.633	1	1	0	0	968.408	971.27	895.941	8.08533	782.151	386.479	129.08	1131.65	1455.97	1652.4	1385.07	52.4471	1149.6	637.649	250.601	2039.19	200.191	28.933	196.383	81.030	15.149	19.856	25.287	14.582	8192	-8191	8192	8192	254	
77177.688	1	1	0	0	969.309	993.304	889.851	3.929	782.636	378.05	112.916	1170.98	1460.67	1645.3	1392.21	56.75	1159.07	626.745	250.889	2033.13	199.079	28.151	198.098	68.869	15.383	17.031	15.034	14.524	8192	-8191	8192	8192	254	
77177.734	1	1	0	0	982.998	986.293	880.344	2.4801	759.047	374.92	123.953	1170.8	1472.19	1630.69	1393.39	55.5913	1164.54	637.697	255.337	2062.24	200.465	27.898	199.092	0.532	15.831	16.826	22.495	15.352	8192	-8191	8192	8192	254	
77177.781	1	1	0	0	985.287	991.796	864.147	3.54424	778.138	371.31	118.057	1140.14	1464.34	1651.71	1393.21	51.4615	1159.94	632.115	257.13	2040.8	199.395	28.782	198.127	102.565	15.202	18.448	29.184	14.888	8192	-8191	8192	8192	254	
77177.828	1	1	0	0	959.042	1000.01	864.26	5.06642	777.286	361.203	122.048	1150.05	1467.72	1676.93	1398.8	60.4712	1157.71	646.865	267.803	2055.39	200.224	28.271	198.713	27.290	15.403	18.789	20.396	14.373	8192	-8191	8192	8192	254	
77177.898	1	1	0	0	977.381	959.412	901.785	0.628454	724.239	356.668	113.284	1137.35	1476.79	1639.3	1432.31	79.726	1147.33	649.135	267.476	2070.51	200.185	26.553	199.869	345.727	15.693	20.500	20.760	16.241	8192	-8191	8192	8192	254	
77177.945	1	1	0	0	971.166	960.181	907.04	4.71055	816.692	388.585	114.078	1183.84	1485.38	1653.07	1409.98	80.5913	1195.84	669.75	269.394	2116.34	199.962	28.985	197.234	155.166	15.969	18.341	20.223	14.452	8192	-8191	8192	8192	254	
77177.992	1	1	0	0	977.611	999.327	903.506	5.89561	765.229	360.743	113.092	1142.62	1510.36	1674.41	1425.93	76.2933	1185.7	655.885	278.375	2054.3	199.733	29.267	199.207	253.340	12.201	20.105	18.402	16.205	8192	-8191	8192	8192	254	
77178.047	1	1	0	0	974.125	961.77	879.789	5.02368	764.702	378.99	132.851	1138.53	1488.84	1653.12	1430.9	72.4904	1185.47	662.394	287.587	2075.51	199.981	27.538	199.568	110.450	15.498	18.469	14.847	17.226	8192	-8191	8192	8192	254	
77178.047	1	1	0	0	949.546	976.663	868.982	2.67002	768.918	408.948	116.982	1145.67	1467.05	1656.9	1412.68	83.1731	1184.18	668.188	266.361	2062.65	200.035	29.434	199.091	204.710	15.174	17.819	22.048	16.137	8192	-8191	8192	8192	254	
77178.094	1	1	0	0	969.895	979.013	886.044	4.74211	760.525	382.226	121.06	1195.16	1486.35	1658.25	1426.96	77.0769	1177.39	665.24	279.966	2103.8	201.476	28.623	200.789	113.352	15.096	18.118	15.208	11.325	8192	-8191	8192	8192	254	
77178.141	1	1	0	0	969.687	973.07	874.192	3.83606	764.827	393.727	120.312	1184.71	1490.86	1656.23	1434.55	81.0913	1183.27	667.279	279.418	2085.79	199.749	29.520	197.903	215.399	13.872	16.286	20.968	14.319	8192	-8191	8192	8192	254	
77178.188	1	1	0	0	961.521	993.157	902.557	5.97422	751.534	360.004	117.211	1158.64	1476.2	1659.8	1427.84	80.2788	1155.44	655.812	282.255	2077.01	199.175	28.999	199.331	331.351	13.588	18.172	18.431	13.335	8192	-8191	8192	8192	254	
77178.258	1	1	0	0	990.28	981.738	875.32	5.4235	739.793	368.171	108.815	1176.72	1499.1	1662.41	1410.12	82.3894	1170.24	650.721	272.058	2069.27	199.633	28.511	198.323	142.802	13.842	18.224	22.704	14.541	8192	-8191	8192	8192	254	
77178.305	1	1	0	0	990.459	990.612	882.998	4.87305	753.967	359.309	103.742	1176.34	1491.63	1652.38	1424.59	61.2019	1147.36	625.24	245.101	2059.25	200.691	28.498	199.786	343.889	14.455	16.791	24.547	15.361	8192	-8191	8192	8192	254	
77178.352	1	1	0	0	912.612	1008.48	905.525	3.86638	799.739	382.128	117.634	1141.99	1440.96	1632.47	1408.79	46.2115	1157.52	632.236	245.168	2027.97	200.290	28.183	197.987	169.112	13.265	17.878	19.095	15.820	8192	-8191	8192	8192	254	
77178.406	1	1	0	0	942.196	1014.72	927.304	1.44186	779.32	376.98	117.457	1172.26	1450.06	1662.06	1421.99	47.4135	1141.83	628.548	238.736	2053.97	201.044	27.199	199.336	162.307	13.161	17.156	18.158	14.845	8192	-8191	8192	8192	254	
77178.453	1	1	0	0	975.58	958.652	896.249	5.32912	774.837	356.915	119.957	1133.62	1470.98	1625.09	1415.03	43.0048	1153.6	608.538	238.37	2057.36	200.307	28.422	196.875	1.050	14.856	15.223	25.006	15.023	8192	-8191	8192	8192	254	
77178.500	1	1	0	0	962.184	948.664	902.948	3.28441	774.283	369.298	132.217	1118.04	1438.02	1610.92	1404.23	41.7452	1141.95	636.875	248.562	2015	202.521	29.581	200.422	97.945	16.511	19.684	21.914	16.050	8192	-8191	8192	8192	254	
77178.570	1	1	0	0	949.94	1010.35	906.727	1.72493	763.6	354.952	113.924	1170.17	1437.73	1636.1	1408.9	46.7356	1145.23	607.067	237.966	2041.2	199.998	28.704	198.770	79.599	14.295	19.270	27.820	13.737	8192	-8191	8192	8192	254	
77178.617	1	1	0	0	955.557	969.649	899.134	1.30557	796.143	354.398	108.269	1185.21	1432.88	1606.34	1398.32	46.2596	1159.32	623.332	235.312	2051.37	199.888	26.576	197.276	341.732	14.764	18.084	21.629	15.818	8192	-8191	8192	8192	254	
77178.672	1	1	0	0	998.123	976.846	889.547	5.79175	754.229	353.214	128.923	1147.58	1469.48	1647.63	1387.74	47.2837	1129.93	617.12	235.264	2046.11	201.335	28.925	198.029	57.063	13.710	19.872	24.372	15.453	8192	-8191	8192	8192	254	
77178.719	1	1	0	0	954.018	1010.31	900.265	1.84781	796.63	366.043	121.992	1162.48	1442.92	1654.37	1402.62	48.8173	1163.39	633.986	250.337	2041.54	199.340	28.565	200.107	205.221	12.683	18.716	17.503	14.913	8192	-8191	8192	8192	254	
77178.766	1	1	0	0	956.179	958.35	882.526	5.34574	767.637	386.407	114.238	1157.33	1450.03	1609.07	1399.55	49.3173	1138.73	633.923	230.567	2023.48	199.398	29.695	198.449	11.571	15.900	19.503	23.560	14.164	8192	-8191	8192	8192	254	
77178.812	1	1	0	0	942.911	995.227	881.118	2.64629	751.868	383.063	126.056	1164.13	1437.57	1624.35	1401	45.2548	1138.38	641.192	251.26	2049.01	199.188	28.744	198.210	290.382	14.152	18.187	21.904	13.813	8192	-8191	8192	8192	254	
77178.812	1	1	0	0	921.627	987.038	923.157	2.7661	758.218	359.546	116.239	1151.84	1424.97	1632.79	1423.87	45.1394	1134.18	623.236	247.861	2042.69	199.031	29.428	199.574	292.704	14.321	18.278	21.276	13.451	8192	-8191	8192	8192	254	
77178.859	1	1	0	0	950.008	986.242	913.952	4.4284	761.056	400.922	116.466	1151.89	1444.63	1627.27	1424.81	44.3942	1151.25	645.74	245.274	2049.02	200.323	29.021	200.472	341.311	13.856	19.030	18.478	15.470	8192	-8191	8192	8192	254	
77178.930	1	1	0	0	971.454	966.679	903.139	5.07685	730.491	394.53	122.196	1154.17	1459.28	1629.04	1402.08	46.8365	1136.06	641.615	248.591	2055.11	200.369	29.972	198.397	14.395	15.989	22.179	25.329	14.548	8192	-8191	8192	8192	254	
77178.977	1	1	0	0	964.948	959.435	927.295	7.39235	791.797	373.33	130.224	1161.06	1453.98	1616.65	1413.03	50.4471	1148.25	619.899	244.745	2037.63	200.549	27.133	200.748	84.519	14.639	19.940	15.210	15.452	8192	-8191	8192	8192	254	
77179.031	1	1	0	0	964.015	985.758	893.575	2.69195	779.335	362.658	106.573	1142.72	1450.6	1637.57	1397.57	46.1394	1144.52	621.654	244.712	2060.7	197.880	27.511	199.040	278.474	13.613	20.375	21.911	14.767	8192	-8191	8192	8192	254	
77179.078	1	1	0	0	951.271	983.656	915.278	2.99314	774.958	355.008	111.664	1167.46	1447.32	1627.79	1394.74	46.8702	1142.18	619.005	248.918	2061.81	200.271	28.330	199.527	99.617	15.565	20.115	17.537	14.202	8192	-8191	8192	8192	254	
77179.125	1	1	0	0	962.8	985.099	915.993	5.58531	785.317	364.308	114.764	1151.16	1453.92	1642.7	1403.77	45.8798	1166.75	621.072	241.226	2041.02	200.456	28.316	199.142	126.010	14.793	20.400	18.232	13.521	8192	-8191	8192	8192	254	
77179.172	1	1	0	0	998.465	1011.89	857.163	1.79719	746.771	353.366	112.534	1158.71	1473	1658.21	1389.05	49.7356	1138.05	624.51	231.885	2014.75	199.730	28.731	198.425	111.743	15.492	18.251	24.213	12.309	8192	-8191	8192	8192	254	
77179.219	1	1	0	0	938.477	983.085	913.541	5.83577	756.109	371.866	115.645	1175	1437.64	1635.19	1396.2	47.7452	1148.42	614.173	245.433	2053.06	198.428	29.572	197.440	30.815	15.785	19.748	18.067	14.135	8192	-8191	8192	8192	254	
77179.266	1	1	0	0	975.713	995.726	898.956	2.24851	765.897	369.993	120.227	1139.57	1459.94	1622.44	1406.75	51.5144	1131.98	625.192	237.567	2026.44	199.459	28.358	199.379	277.775	15.506	17.773	21.720	15.235	8192	-8191	8192	8192	254	
77179.336	1	1	0	0	961.957	971.126	887.965	4.0494	787.817	362.592	124.508	1146.1	1435.82	1625.35	1397.42	44.101	1160.22	621.885	246.933	2023.02	200.623	27.112	198.915	187.929	15.510	15.358	18.574	13.695	8192	-8191	8192	8192	254	
77179.391	1	1	0	0	966.011	978.662	924.376	8.69823	724.632	374.327	117.418	1158.73	1440.79	1628.12	1411.09	46.3125	1123.38	612.981	247.5	2050.03	197.893	28.180	198.006	56.182	14.318	17.561	18.220	14.847	8192	-8191	8192	8192	254	
77179.438	1	1	0	0	943.179	976.823	913.389	2.58999	797.545	397.89	115.789	1157.4	1439.3	1629.06	1408.04	46.149	1175.95	631.812	237.678	2025.36	198.978	28.589	198.905	293.335	14.529	19.624	25.157	13.567	8192	-8191	8192	8192	254	
77179.484	1	1	0	0	932.59	1003.3	895.228	4.62777	781.361	377.402	113.296	1150.14	1423.07	1623.14	1408.27	41.4904	1166.26	627.716	237.111	2043.97	199.348	29.516	198.597	259.324	13.037	17.894	22.386	15.231	8192	-8191	8192	8192	254	
77179.531	1	1	0	0	924.935	988.313	894.902	1.26094	773.353	376.552	120.037	1151.88	1414.06	1631.73	1385.84	45.6587	1140.38	618.284	248.971	2034.03	200.328	28.447	197.991	64.109	14.767	17.308	18.710	15.357	8192	-8191	8192	8192	254	
77179.578	1	1	0	0	956.354	1008.37	894.589	4.61167	778.366	361.96	126.799	1125.99	1448.96	1627.84	1386.92	45.7981	1141.69	619.841	245.25	2009.53	199.472	29.072	197.986	14.501	15.153	18.407	10.978	14.247	8192	-8191	8192	8192	254	
77179.578	1	1	0	0	939.277	980.291	879.065	1.24858	790.48	375.502	130.71	1193.68	1449.44	1634.58	1387.54	42.1538	1154.79	627.582	241.067	2051.36	199.513	29.561	196.509	238.278	13.918	18.022	25.813	14.442	8192	-8191	8192	8192	254	
77179.625	1	1	0	0	945.308	973.789	891.638	2.67555	758.914	386.801	111.157	1157.78	1442.3	1626.45	1386.42	49.149	1127.53	633.543	238.659	2018.49	198.417	28.847	197.844	207.732	15.319	18.623	22.159	10.717	8192	-8191	8192	8192	254	
77179.695	1	1	0	0	958.676	1021.21	905.665	1.05571	780.504	377.13	125.12	1155.12	1443.03	1646.29	1405.26	42.2548	1150.76	629.788	242.861	2048.77	198.665	29.209	198.848	263.958	13.456	18.445	23.765	16.609	8192	-8191	8192	8192	254	
77179.750	1	1	0	0	952.182	1009.23	905.33	2.51039	773.034	380.662	123.592	1165.63	1454.39	1679.36	1391.82	45.9712	1143.22	625.712	236.154	2042.89	200.314	28.150	199.184	358.655	16.290	19.059	24.115	14.777	8192	-8191	8192	8192	254	
77179.797	1	1	0	0	947.41	981.258	901.92	5.0175	788.029	358.468	125.714	1165.37	1441.45	1629.44	1406.37	51.1394	1163.74	628.082	237.928	2052.38	198.650	27.413	198.299	89.291	14.107	17.776	24.286	14.984	8192	-8191	8192	8192	254	
77179.844	1	1	0	0	966.08	1000.14	909.015	0.823918	768.479	380.504	126.331	1168.36	1447.75	1635.98	1407.06	44.8221	1145.96	640.087	247.082	2064.05	199.482	27.402	197.545	352.345	16.200	15.819	20.418	14.344	8192	-8191	8192	8192	254	
77179.891	1	1	0	0	944.4	994.921	907.892	6.38953	783.163	365.624	132.279	1177.6	1437.52	1645.04	1418.21	47.8221	1149.25	631.404	244.678	2048.66	200.735	28.226	197.669	356.799	13.851	17.189	13.045	15.196	8192	-8191	8192	8192	254	
77179.938	1	1	0	0	985.788	978.036	880.986	6.33804	776.073	362.509	118.93	1159.45	1458.7	1632.64	1404.95	45.3077	1141.56	624.279	240.438	2038.96	199.262	28.622	197.505	124.294	14.538	17.623	24.289	13.273	8192	-8191	8192	8192	254	
77179.984	1	1	0	0	960.291	963.303	883.914	3.64745	760.131	376.116	103.903	1174.43	1450.26	1626.5	1391.01	47.2404	1147.35	610.942	235.087	2053.92	200.785	27.752	198.769	41.691	14.327	18.155	23.105	15.071	8192	-8191	8192	8192	254	
77180.031	1	1	0	0	960.722	985.044	869.201	5.99407	782.279	377.426	112.341	1185.82	1454.55	1641.03	1375.21	47	1164.79	630.966	241.014	2041.37	200.062	28.244	197.785	56.906	14.604	18.604	23.911	14.461	8192	-8191	8192	8192	254	
77180.086	1	1	4	0	962.055	1034.87	885.51	5.91975	753.14	371.329	117.446	1172.88	1453.82	1643.71	1397.34	48.3846	1152.75	632.889	252.611	2052.33	200.796	30.731	198.317	81.781	14.576	17.897	18.534	14.099	8192	-8191	8192	8192	254	
77180.133	1	1	0	0	948.585	988.256	912.699	4.34621	779.13	366.02	104.864	1203	1453.73	1633.92	1403.64	57.3702	1168.02	631.803	242.135	2053.6	201.085	27.199	198.729	87.721	13.123	19.590	25.748	15.099	8192	-8191	8192	8192	254	
77180.203	1	1	0	0	965.161	988.766	869.61	3.74743	744.274	367.969	121.156	1157.81	1457.75	1650.13	1397.31	66.0817	1155.14	653.159	274.346	2074.75	200.719	27.859	198.259	304.887	13.734	17.702	20.774	16.144	8192	-8191	8192	8192	254	
77180.250	1	1	0	0	964.126	988.091	883.315	3.51353	774.597	357.765	99.4999	1194.65	1494.79	1657.64	1426.74	87.0433	1181.85	661.034	279.115	2086.88	199.246	28.753	199.486	311.145	14.706	20.070	20.228	14.706	8192	-8191	8192	8192	254	
77180.297	1	1	0	0	980.258	969.589	921.235	9.05067	749.775	371.319	120.375	1172.87	1503.16	1683.71	1458.32	93.2596	1183.44	679.13	293.659	2105.63	200.356	30.857	199.255	57.069	16.522	17.048	17.731	14.667	8192	-8191	8192	8192	254	
77180.352	1	1	0	0	959.16	977.54	890.23	3.81977	775.689	349.387	125.174	1163.03	1490.43	1669.73	1432.88	101.375	1207.14	667.394	290.812	2090.37	199.641	28.400	199.869	146.606	14.346	18.776	20.765	15.015	8192	-8191	8192	8192	254	
77180.344	1	1	0	0	951.046	979.813	860.352	7.85342	779.902	364.296	132.983	1174.76	1506.28	1672.31	1432.25	103.096	1209.81	677.952	303.601	2103.85	198.905	27.556	198.631	243.568	15.423	18.511	28.876	15.731	8192	-8191	8192	8192	254	
77180.398	1	1	0	0	968.249	986.305	898.614	2.72934	767.107	386.787	116.756	1179.42	1519.93	1680.77	1453.58	114.308	1201.53	701.062	306.346	2100.15	200.748	27.179	197.955	328.697	15.125	15.948	22.540	16.383	8192	-8191	8192	8192	254	
77180.445	1	1	0	0	963.71	963.935	903.789	5.50974	796.363	364.571	117.52	1169.57	1512.44	1706.81	1477.7	120.476	1243.43	688.962	314.188	2136.81	199.725	29.020	199.127	357.325	14.178	17.902	17.166	14.015	8192	-8191	8192	8192	254	
77180.492	1	1	0	0	970.662	1005.14	876.091	3.05243	771.25	387.532	120.116	1181.31	1526.13	1690.52	1463.23	115.721	1217.56	691.87	304.082	2121.88	200.197	27.189	198.502	40.656	12.655	20.464	19.862	13.849	8192	-8191	8192	8192	254	
77180.562	1	1	0	0	959.82	999.157	879.272	7.2937	753.364	372.225	118.338	1149.2	1515.13	1709.5	1445.35	107.221	1210.07	670.793	294.995	2068.39	199.662	28.905	198.196	242.925	16.360	18.501	19.053	13.587	8192	-8191	8192	8192	254	
77180.609	1	1	0	0	938.353	1020.04	887.85	6.69958	736.47	355.172	115.069	1188.41	1489.68	1717.56	1438.17	100.918	1194.19	675.087	307.082	2115.67	198.720	26.658	198.781	124.176	15.196	16.716	21.481	14.791	8192	-8191	8192	8192	254	
77180.656	1	1	0	0	956.363	1019.89	937.943	3.32719	764.804	362.759	106.722	1164.41	1510	1687.95	1493.44	107.394	1203.64	688.043	300.793	2138.2	200.401	27.958	197.788	294.377	13.623	18.884	26.295	14.118	8192	-8191	8192	8192	254	
77180.711	1	1	0	0	937.554	974.787	864.322	4.6427	755.166	365.672	129.977	1175.71	1485.71	1666.55	1462.55	110.245	1211.3	689.298	312.452	2108.88	200.413	27.644	198.530	229.950	16.775	17.946	19.190	15.390	8192	-8191	8192	8192	254	
77180.758	1	1	0	0	989.442	975.977	894.325	4.84412	739.636	360.684	128.356	1161.65	1529.15	1699.92	1460.17	129.447	1216.28	694.115	333.077	2128.17	201.332	28.531	197.731	22.590	14.791	17.040	15.708	14.586	8192	-8191	8192	8192	254	
77180.805	1	1	0	0	989.606	963.706	910.81	1.53948	761.186	373.74	129.921	1181.93	1554.63	1717.42	1498.97	150.909	1237.17	739.207	360.558	2169.51	198.620	29.476	197.055	36.379	15.352	17.718	24.931	14.306	8192	-8191	8192	8192	254	
77180.875	1	1	0	0	946.85	977.571	909.902	12.7289	760.504	360.268	115.457	1176.44	1565.18	1772.08	1575.06	199.957	1298.12	780.596	405.178	2215.92	200.381	28.723	198.283	225.184	13.236	16.298	15.597	14.512	8192	-8191	8192	8192	254	
77180.922	1	1	0	0	966.71	1024.25	900.526	7.4184	800.459	373.992	123.722	1161.88	1602.64	1797.9	1578.15	208.245	1328.51	799.399	427.212	2229.9	201.269	29.308	198.370	86.270	14.128	15.783	22.240	15.147	8192	-8191	8192	8192	254	
77180.969	1	1	0	0	954.666	993.603	892.687	0.954876	775.816	353.003	119.252	1166.88	1603.59	1815.09	1562.94	229.418	1325.67	797.774	433.495	2220	200.728	27.252	199.389	64.353	14.050	22.147	25.760	15.339	8192	-8191	8192	8192	254	
77181.016	1	1	0	0	966.203	1008.52	915.514	11.1756	760.091	350.175	123.558	1184.58	1628.66	1803.14	1586.38	235.822	1329.12	804.308	420.486	2251.39	199.751	27.899	197.195	266.722	15.591	18.169	15.743	16.429	8192	-8191	8192	8192	254	
77181.070	1	1	0	0	980.633	1008.2	928.823	4.1045	754.796	374.495	111.319	1131.58	1642.42	1828.14	1594.52	224.255	1326.7	798.678	404.788	2199.76	199.883	28.339	197.314	28.422	15.026	15.274	24.020	13.860	8192	-8191	8192	8192	254	
77181.117	1	1	0	0	993.781	1026.48	912.141	6.95231	761.684	377.459	116.329	1163.52	1629.06	1840.93	1589.45	229.481	1314.3	790.793	422.356	2207.57	199.294	29.236	197.853	238.725	15.392	17.001	12.814	14.025	8192	-8191	8192	8192	254	
77181.117	1	1	0	0	986.387	1008.71	902.727	5.60519	782.052	395.653	115.008	1134.5	1629.6	1832	1584.68	230.49	1327.64	817.168	424.529	2214.42	202.330	29.264	195.053	358.493	13.961	15.478	17.601	15.546	8192	-8191	8192	8192	254	
77181.164	1	1	0	0	931.706	962.178	909.013	16.669	742.706	385.651	109.341	1168.98	1623	1799.34	1590.87	245.663	1324.5	820.611	443.139	2239.78	200.454	30.823	200.127	334.131	15.227	19.705	23.293	16.010	8192	-8191	8192	8192	254	
77181.211	1	1	0	0	966.693	1012.31	882.543	11.3297	767.841	371.757	131.798	1157.71	1642.17	1850	1583.71	239.462	1330.2	807.144	448.029	2249.79	198.894	28.129	198.465	112.683	15.915	18.740	18.205	13.993	8192	-8191	8192	8192	254	
77181.258	1	1	0	0	954.737	962.233	882.34	9.34209	763.969	378.883	102.438	1125.29	1649.23	1859	1588.22	255.668	1366.51	842.808	447.423	2231.8	200.243	27.157	199.061	302.376	16.084	21.714	21.226	15.533	8192	-8191	8192	8192	254	
77181.328	1	1	0	0	953.939	984.429	888.451	3.0367	725.802	372.021	122.156	1173.68	1669.15	1830.17	1618.72	254.495	1338.75	838.986	444.909	2272.43	201.531	28.998	197.067	1.584	15.545	22.100	29.371	14.645	8192	-8191	8192	8192	254	
77181.383	1	1	0	0	932.255	975.003	877.081	3.00695	761.717	370.131	118.942	1184.88	1667.12	1827.98	1602.7	266.74	1354.31	838.303	463	2269.07	201.953	29.173	198.736	88.709	13.844	21.144	18.243	15.046	8192	-8191	8192	8192	254	
77181.430	1	1	0	0	959.447	999.999	879.929	0.679508	766.224	378.514	123.359	1174.81	1671.67	1864.38	1592.72	264.409	1367.75	840.981	469.99	2267.01	200.389	28.050	198.962	320.368	13.776	18.712	28.444	14.806	8192	-8191	8192	8192	254	
77181.477	1	1	0	0	995.507	979.853	921.246	9.77054	664.852	299.325	72.9397	472.058	1703.13	1856.7	1605.96	262.957	1226.08	708.976	335.452	995.856	199.828	28.143	197.969	211.303	16.396	16.526	9.022	15.235	8192	-8191	8192	8192	254	
77181.523	1	1	0	0	151.647	35.8866	19.8987	5.03708	2.98993	6.42179	7.11242	4.93505	380.875	227.861	178.029	140.029	149.889	151.399	152.312	163.26	205.671	31.617	220.644	115.621	51.820	249.434	44.555	172.294	8192	-8191	8192	8192	254	
77181.570	1	1	0	0	4.68805	7.86574	44.4179	82.0048	11.5119	10.2045	49.5711	67.2804	242.688	617.284	1885.7	7530.49	11110.7	11175	10968.2	10891.9	284.581	89.801	89.351	127.889	291.612	35.393	283.360	217.706	8192	-8191	8192	8192	254	
77181.617	1	1	0	0	40.0613	97.297	57.3313	71.3263	62.0722	64.855	118.854	97.9446	11395.7	11743.5	12345.9	13089.1	14099.4	14370.2	14428.1	14465.6	51.058	230.995	295.808	177.438	306.707	48.336	287.977	56.929	8192	-8191	8192	8192	254	
77181.664	1	1	0	0	110.44	110.982	80.678	50.0056	77.3106	79.2676	87.1588	58.9797	14515.9	14109.9	13721.3	13682.3	13706	13127.4	12203.6	7923.65	280.971	178.971	86.956	333.819	165.289	237.219	33.808	328.917	8192	-8191	8192	8192	254	
77181.742	1	1	0	0	60.4455	17.7251	30.597	9.10126	9.65668	25.0761	12.767	22.9215	2716.54	987.962	901.221	873.567	830.62	755.207	788.26	870.274	290.887	274.304	44.985	330.434	199.641	193.921	111.036	297.829	8192	-8191	8192	8192	254	
77181.789	1	1	0	0	33.5775	16.8684	14.9888	12.1152	12.0747	27.0163	13.2079	2.28933	913.356	911.298	872.038	878.779	871.938	899.399	892.495	934.87	25.377	268.930	357.652	9.842	104.540	87.084	77.998	192.369	8192	-8191	8192	8192	254	
77181.836	1	1	0	0	29.4501	19.1206	4.76366	29.0135	6.05788	15.862	28.3532	12.7378	965.957	1024.18	1182.91	991.918	965.87	915.135	898.447	924.611	112.958	31.629	356.425	248.173	291.032	247.932	94.389	195.781	8192	-8191	8192	8192	254	
77181.883	1	1	0	0	15.2847	9.3968	5.70848	6.17091	14.6612	27.2775	6.94023	16.4364	910.562	923.284	909.255	910.048	957.322	962.784	976.442	1054.77	155.635	331.038	162.272	350.971	108.584	10.657	243.638	127.589	8192	-8191	8192	8192	254	
77181.883	1	1	0	0	14.8618	12.6763	20.5552	9.43997	34.5796	60.6792	14.188	10.3982	1136.51	1155.18	1209.35	1262.2	1279.36	1334.56	1361.12	1393.44	250.526	155.189	89.330	202.846	158.768	31.830	94.014	32.423	8192	-8191	8192	8192	254	
77181.930	1	1	0	0	43.7837	11.963	19.9147	25.9542	21.3493	18.2361	11.5787	62.0857	1372.23	1329.57	1415.68	1689.69	2153.98	3780.55	5880.28	7617.04	4.728	163.888	232.737	50.875	117.216	223.832	183.837	206.266	8192	-8191	8192	8192	254	
77181.977	1	1	0	0	81.9428	77.5207	134.897	47.8605	31.8033	52.4132	30.6668	40.0913	9703.13	11930.6	13118.5	12869.8	11684.6	10149.9	8008.22	5989.92	95.793	65.011	171.149	191.065	297.989	60.281	153.563	278.845	8192	-8191	8192	8192	254	
77182.023	1	1	0	0	45.2823	34.3517	13.1015	17.6542	39.4608	9.83012	23.9004	28.2149	3599.12	1933.31	2191.06	2357.93	2281.35	2246.17	2235.47	2147.19	305.556	115.824	92.666	151.452	93.241	250.306	314.416	181.777	8192	-8191	8192	8192	254	
77182.102	1	1	0	0	16.5522	40.2699	53.4747	22.6564	13.0136	30.364	10.4415	29.4315	2209.95	2201.6	2208.49	2176.1	2155.47	2121.01	2145.87	2131.62	180.045	102.686	350.723	212.467	16.427	326.644	250.136	48.868	8192	-8191	8192	8192	254	
77182.148	1	1	0	0	18.2628	13.4254	4.35093	32.1306	10.4227	19.6285	17.0597	21.3578	2117.77	2103.68	2053.17	2116.62	2099.55	2156.47	2141.65	2175.5	343.411	51.243	200.983	90.205	10.385	46.043	158.564	170.150	8192	-8191	8192	8192	254	
77182.195	1	1	0	0	11.6395	5.45894	46.6224	6.64622	26.3256	21.9037	25.0892	49.6021	2181.95	2221.15	2278.41	2255.89	2280.48	2275.4	2178.11	2154.55	62.806	146.566	47.958	139.509	10.814	112.498	102.513	63.215	8192	-8191	8192	8192	254	
77182.242	1	1	0	0	10.6163	28.4054	69.757	23.647	13.6273	8.60349	25.7099	31.024	2124.68	2088.58	2036.19	2004.67	1985.16	2005.38	1998.65	2006.65	297.324	96.621	49.415	15.764	326.973	34.807	43.980	149.654	8192	-8191	8192	8192	254	
77182.289	1	1	0	0	8.44674	14.9549	49.5675	42.4773	0.9976	18.5542	10.0111	33.1621	1820.91	1640.98	1640.73	1525.61	1409.52	1384.88	1409	1435.65	228.173	109.497	46.522	335.457	223.277	38.684	47.024	38.968	8192	-8191	8192	8192	254	
77182.344	1	1	0	0	10.4535	30.5984	22.8151	68.8783	28.029	31.2528	52.2112	59.6485	1480.7	1519.41	1545.84	4534.57	6380.09	6453.02	6521.68	6517.76	57.710	221.098	37.625	118.340	348.186	109.334	13.844	310.762	8192	-8191	8192	8192	254	
77182.414	1	1	0	0	39.598	52.4788	52.7854	58.0944	12.3394	16.2833	6.32399	5.60095	6488.47	6248.46	4821.34	2810.81	1313.05	693.827	447.034	344.625	256.727	343.557	358.484	347.604	59.006	18.434	36.143	77.268	8192	-8191	8192	8192	254	
77182.461	1	1	0	0	13.4003	15.8087	5.12673	13.2455	14.0103	4.47736	8.12812	9.69208	298.394	296.587	296.837	299.24	292.505	279.678	252.577	234.053	188.466	225.030	93.991	61.656	28.291	259.881	21.791	66.622	8192	-8191	8192	8192	254	
77182.508	1	1	0	0	5.39601	1.05012	2.19278	1.73941	6.40004	9.50678	5.17514	8.14788	202.692	198.13	182.183	171.74	172.788	163.663	160.038	155.221	82.732	165.541	170.341	250.776	179.221	252.731	358.909	217.612	8192	-8191	8192	8192	254	
77182.555	1	1	0	0	6.02842	4.1112	7.70677	3.24497	12.0166	2.46401	4.28007	12.8631	157.971	155.149	144.981	141.245	149.462	135.933	140.716	136.947	122.562	210.984	89.022	291.103	56.450	45.955	89.125	210.618	8192	-8191	8192	8192	254	
77182.602	1	1	0	0	10.0934	7.28327	11.2937	6.94588	9.73623	15.6979	10.3021	153.944	145.418	143.87	139.668	139.173	145.678	155.019	158.361	469.101	112.539	181.188	234.061	222.478	44.011	29.081	26.670	24.349	8192	-8191	8192	8192	254	
77182.648	1	1	0	0	225.337	257.886	222.395	0.458477	211.904	92.3082	36.9847	316.181	626.721	738.404	675.837	327.125	626.481	509.014	403.74	911.87	201.763	34.869	200.876	75.853	16.740	22.362	18.073	17.364	8192	-8191	8192	8192	254	
77182.648	1	1	0	0	242.274	269.701	223.855	0.85542	235.056	109.878	38.1422	339.493	725.639	753.361	705.019	367.601	671.111	527.861	422.885	958.106	203.088	36.284	205.395	155.266	22.351	23.255	40.723	14.938	8192	-8191	8192	8192	254	
77182.703	1	1	0	0	282.21	288.918	261.601	6.87459	218.192	103.778	57.1677	347.401	753.279	815.048	743.846	359.938	670.635	534.216	423.014	936.452	200.275	35.920	206.520	213.761	21.478	32.972	14.135	22.650	8192	-8191	8192	8192	254	
77182.750	1	1	0	0	280.386	288.255	242.789	9.11024	255.27	109.789	38.2699	362.397	757.582	783.601	700.024	318.529	655.856	497.096	371.562	903.274	204.725	33.809	206.911	316.984	21.342	16.372	33.526	20.090	8192	-8191	8192	8192	254	
77182.797	1	1	0	0	271.571	275.497	253.917	11.7726	238.558	107.528	39.5222	342.722	704.495	740.452	669.538	281.798	596.159	452.577	311.736	863.668	206.038	34.340	208.188	44.826	22.586	25.623	30.618	22.046	8192	-8191	8192	8192	254	
77182.867	1	1	0	0	280.901	275.569	242.585	6.66604	218.714	115.699	29.7061	347.819	646.933	676.029	608.308	220.548	530.697	386.096	256.726	776.798	200.914	33.961	199.156	54.505	15.591	25.203	14.212	21.374	8192	-8191	8192	8192	254	
77182.914	1	1	0	0	275.87	269.021	222.509	4.51715	216.677	96.1602	29.4681	273.854	573.707	588.861	532.543	169.966	452.101	308.264	215.745	658.005	202.279	33.719	204.961	154.964	16.702	18.944	356.229	21.371	8192	-8191	8192	8192	254	
77182.961	1	1	0	0	216.01	236.53	216.059	10.9146	201.292	85.711	23.6642	296.259	477.726	516.245	472.745	137.567	405.111	288.447	181.673	649.745	207.133	35.490	206.249	193.062	21.737	31.651	19.841	20.267	8192	-8191	8192	8192	254	
77183.016	1	1	0	0	227.582	225.934	211.6	9.50011	198.459	88.0773	33.7744	300.02	461.322	499.13	445.413	120.995	406.933	266.24	167.418	629.476	204.792	33.228	204.223	351.558	21.229	18.512	38.995	17.428	8192	-8191	8192	8192	254	
77183.062	1	1	0	0	219.202	230.929	219.687	5.14527	185.124	98.099	39.3066	303.789	437.635	481.774	421.019	107.615	373.01	254.495	157.471	613.837	205.693	36.916	203.114	323.765	21.418	27.164	31.107	22.380	8192	-8191	8192	8192	254	
77183.109	1	1	0	0	223.633	231.131	223.702	8.02384	190.276	96.8099	31.1415	307.36	429.827	475.082	419.327	106.216	383.298	253.197	148.385	626.019	203.817	32.042	205.462	14.118	22.999	21.378	22.551	19.575	8192	-8191	8192	8192	254	
77183.180	1	1	0	0	229.148	222.689	212.893	3.74954	192.209	98.1158	24.3783	305.547	437.37	466.856	418.067	101.736	382.75	254.837	153.894	621.5	207.181	35.873	203.156	106.860	18.379	25.308	26.356	17.421	8192	-8191	8192	8192	254	
77183.227	1	1	0	0	224.498	222.126	220.018	2.74902	193.859	93.8352	35.2533	294.745	432.462	464.764	426.154	108.433	382.553	261.788	160.043	631.067	203.016	33.671	205.668	264.099	13.232	23.944	22.928	18.022	8192	-8191	8192	8192	254	
77183.273	1	1	0	0	229.367	218.662	207.276	3.17017	200.07	98.1898	25.8145	300.918	450.38	479.346	419.827	110.803	383.899	263.562	153.365	613.125	210.057	33.390	202.117	291.390	18.731	28.493	12.154	19.486	8192	-8191	8192	8192	254	
77183.320	1	1	0	0	231.149	235.683	217.774	4.74488	199.033	81.3692	33.2482	298.673	437.543	476.678	423.188	105.135	379.808	247.707	158.317	617.764	207.601	35.265	203.136	349.328	19.853	29.086	23.438	21.114	8192	-8191	8192	8192	254	
77183.375	1	1	0	0	232.431	233.994	196.977	1.87816	162.81	92.9977	21.7228	293.38	431.149	468.957	417.995	104.365	371.673	262.115	165.827	622.067	204.110	35.263	203.340	245.971	19.046	19.478	22.478	21.658	8192	-8191	8192	8192	254	
77183.422	1	1	0	0	207.781	232.489	203.46	6.06471	178.688	94.8812	32.3179	298.474	433.356	481.154	420.981	113.293	380.034	256.971	161.971	621.639	209.308	31.541	201.271	230.598	19.250	22.372	36.699	21.310	8192	-8191	8192	8192	254	
77183.422	1	1	0	0	230.284	212.786	204.608	6.52871	188.983	98.7638	31.6847	296.772	437.663	457.707	428.885	106.663	376.817	265.144	161.279	616.091	208.643	34.027	204.515	217.681	23.383	21.540	27.757	23.760	8192	-8191	8192	8192	254	
77183.469	1	1	0	0	211.008	214.268	215.046	4.31689	188.862	99.7283	33.5088	308.154	433.202	480.505	415.466	111.625	382.49	259.971	163.144	643.438	206.171	36.322	199.026	203.929	20.976	23.224	23.167	19.097	8192	-8191	8192	8192	254	
77183.539	1	1	0	0	233.382	210.559	197.718	6.51226	197.694	100.043	30.7981	298.757	450.207	480.803	424.587	111.245	384.101	265.409	158.115	609.264	205.305	34.062	201.970	168.890	19.072	30.564	42.181	20.780	8192	-8191	8192	8192	254	
77183.586	1	1	0	0	214.261	217.965	217.863	5.95537	200.621	85.17	36.6656	284.341	432.76	466.606	426.654	107.957	387.644	243.385	159.168	622.154	208.399	33.195	207.238	7.433	16.157	19.407	37.345	22.832	8192	-8191	8192	8192	254	
77183.633	1	1	0	0	226.067	224.182	219.013	7.85556	179.723	108.198	29.4776	296.218	430.13	477.038	417.303	112.524	374.163	255.659	161.284	636.221	205.586	32.718	209.940	234.671	20.291	25.517	31.385	17.287	8192	-8191	8192	8192	254	
77183.688	1	1	0	0	226.742	215.2	201.159	7.0801	186.891	94.2222	29.2251	306.042	439.457	475.192	412.207	103.649	382.457	258.346	149.779	624.457	206.589	35.481	205.613	94.090	21.318	18.373	30.420	21.989	8192	-8191	8192	8192	254	
77183.734	1	1	0	0	228.417	226.836	207.984	3.41031	187.823	101.117	37.0259	305.24	434.683	459.49	415.889	108.014	380.543	253.394	152.308	610.856	208.451	36.302	206.584	207.660	20.205	22.715	39.711	19.043	8192	-8191	8192	8192	254	
77183.781	1	1	0	0	228.058	214.401	200.731	4.11156	175.795	84.5737	26.409	312.047	431.74	454.37	432.788	105.106	359.312	254.803	152.481	636.197	203.066	39.154	203.298	274.890	17.256	18.778	12.330	20.753	8192	-8191	8192	8192	254	
77183.828	1	1	0	0	214.318	199.366	201.25	3.79387	173.615	99.2225	29.7424	293.508	433.837	459.909	419.928	98.1202	371.25	252.062	151.856	607.346	205.237	34.354	202.690	138.190	20.567	24.960	37.675	18.548	8192	-8191	8192	8192	254	
77183.875	1	1	0	0	224.045	235.438	216.738	5.80214	192.024	101.143	34.7887	284.36	420.591	465.673	411.913	97.6442	368.99	243.995	154.668	613.24	202.904	35.251	203.636	231.662	21.391	23.317	30.007	19.328	8192	-8191	8192	8192	254	
77183.922	1	1	0	0	219.739	220.1	221.826	6.34751	198.583	95.9016	35.8644	290.628	417	466.255	415.312	103.817	374.322	247.188	155.553	613.5	206.804	37.152	204.235	235.041	15.940	29.600	37.669	22.865	8192	-8191	8192	8192	254	
77183.969	1	1	0	0	226.784	225.019	204.807	0.753335	185.118	91.8322	35.9763	301.103	430.885	462.471	414.221	102.779	373.659	245.49	141.692	620.361	206.654	31.871	203.774	243.247	14.344	18.476	21.382	22.091	8192	-8191	8192	8192	254	
77184.047	1	1	0	0	222.313	202.139	220.582	4.54949	193.052	96.668	29.2138	303.109	425.74	449.12	413.048	95.101	368.216	242.438	146.495	595.726	205.515	31.881	206.759	141.815	20.899	25.674	29.187	23.874	8192	-8191	8192	8192	254	
77184.094	1	1	0	0	248.724	208.845	211.56	4.83712	194.144	96.0756	22.3332	311.713	430.938	459.745	400.192	89.5048	363.837	242.13	144.264	616.13	203.488	35.968	204.955	336.432	17.438	33.653	31.887	22.042	8192	-8191	8192	8192	254	
77184.141	1	1	0	0	223.921	213.282	215.32	5.16478	186.167	90.0611	26.9535	295.92	427.062	447.904	408.312	92.4712	356.918	236.37	143.688	599.904	204.248	33.547	209.781	315.911	20.698	20.986	16.821	21.286	8192	-8191	8192	8192	254	
77184.188	1	1	0	0	235.425	225.971	208.676	2.13654	180.727	92.9556	31.4615	298.937	421.803	455.308	408.697	97.1731	359.125	242.178	137.62	599.433	207.786	37.094	202.775	352.131	22.190	27.406	18.552	19.134	8192	-8191	8192	8192	254	
77184.188	1	1	0	0	213.006	213.665	198.512	5.75669	181.75	97.3206	30.5419	282.321	407.981	444.096	403.144	95.0673	363.442	244.745	141.337	588.365	208.527	28.719	204.609	145.803	23.622	24.492	33.952	22.778	8192	-8191	8192	8192	254	
77184.234	1	1	0	0	209.124	233.028	225.535	5.87418	188.956	97.2404	24.3869	319.962	408.029	465.654	411.562	96.8317	364.226	231.803	140.673	610.904	210.039	32.503	208.792	216.296	21.432	20.667	34.480	16.606	8192	-8191	8192	8192	254	
77184.281	1	1	0	0	217.005	229.773	212.558	6.61871	179.775	100.886	25.1036	294.139	411.928	446.226	407.721	92.1731	363.938	241.827	142.139	588.111	203.105	33.927	203.680	93.204	21.166	22.565	34.010	20.817	8192	-8191	8192	8192	254	
77184.328	1	1	0	0	225.897	220.834	220.775	1.84711	190.278	102.237	44.7022	320.967	419.25	446.067	417.452	95.1923	354.913	244.192	145.976	605.894	207.819	31.518	202.225	325.699	19.667	23.323	28.629	17.023	8192	-8191	8192	8192	254	
77184.406	1	1	5	0	222.405	231.6	205.734	2.526	180.011	97.8253	25.4419	288.679	427.154	456.332	406.298	86.1731	354.76	239.611	147.788	597.702	205.545	33.822	200.985	89.366	15.579	21.029	26.854	18.164	8192	-8191	8192	8192	254	
77184.453	1	1	0	0	210.31	216.935	227.19	5.04457	191.02	100.109	32.1833	293.517	418.154	448.668	402.346	91.0962	348.99	239.793	128.707	584.793	205.897	33.582	206.210	256.710	17.338	23.513	27.608	18.451	8192	-8191	8192	8192	254	
77184.500	1	1	0	0	217.601	225.972	221.791	7.04662	179.953	91.9861	32.4411	296.559	404.817	428.76	389.803	74.4856	335.111	206.663	114.115	568.452	203.013	38.072	206.076	299.808	20.529	20.262	35.618	20.177	8192	-8191	8192	8192	254	
77184.547	1	1	0	0	223.105	219.313	200.796	7.12106	192.89	96.9439	28.9047	296.011	378.587	411.812	355.332	52.0962	329.284	195.418	97.5288	557.288	204.494	29.993	204.985	23.580	20.642	22.184	24.869	18.794	8192	-8191	8192	8192	254	
77184.594	1	1	0	0	224.041	219.965	183.461	3.84026	183.258	87.9757	33.6649	307.072	377.808	411.865	351.082	42.7115	301.442	188.731	94.75	566.769	204.731	38.294	202.609	11.082	20.158	25.169	19.813	18.894	8192	-8191	8192	8192	254	
77184.641	1	1	0	0	223.867	212.618	189.082	3.09882	178.97	98.0726	37.1004	289.22	375.106	408.01	339.399	41.8606	313.635	192.308	103.611	552.024	207.137	34.236	207.359	195.074	21.592	27.813	33.728	21.302	8192	-8191	8192	8192	254	
77184.695	1	1	0	0	225.971	234.872	214.183	2.59962	195.508	100.249	35.8852	279.404	379.293	422.043	369.26	47.0721	334.851	221.51	127.885	579.394	203.797	31.288	206.007	32.482	20.877	27.289	20.675	20.927	8192	-8191	8192	8192	254	
77184.742	1	1	0	0	226.475	236.161	201.445	3.50648	191.372	101.329	33.4977	284.609	417.572	446.731	403.221	87.351	357.135	228.476	136.966	583.562	205.273	34.009	204.200	103.758	19.774	18.474	15.841	19.904	8192	-8191	8192	8192	254	
77184.812	1	1	0	0	224.514	211.08	207.532	1.75058	184.573	83.5844	25.1709	320.275	410.63	441.88	404.067	93.1058	355.24	225.995	129.115	613.582	203.953	34.519	203.393	86.726	18.603	22.165	12.397	21.591	8192	-8191	8192	8192	254	
77184.859	1	1	0	0	231.513	228.32	206.707	3.47997	180.364	101.626	34.219	293.645	407.231	462.087	397.707	79.9904	348.12	233.202	136.736	596.779	208.625	33.776	202.663	229.430	23.362	26.550	47.474	20.694	8192	-8191	8192	8192	254	
77184.906	1	1	0	0	218.892	230.163	190.332	0.687641	200.255	86.1613	33.6836	294.693	417.351	450.317	387.106	84.1731	357.962	228.822	141.894	597.688	205.577	32.665	203.239	316.382	18.372	24.639	29.129	18.023	8192	-8191	8192	8192	254	
77184.953	1	1	0	0	208.773	239.333	187.812	12.2675	178.583	93.58	25.3495	278.747	401.375	453.913	393.587	83.351	345.255	232.462	136.846	574.111	204.293	30.609	201.534	79.156	15.134	18.565	21.293	20.984	8192	-8191	8192	8192	254	
77184.953	1	1	0	0	211.766	211.352	224.501	0.758066	181.831	93.3802	26.6857	287.642	404.966	437.312	396.312	76.3894	337.385	228.149	115.562	556.327	205.313	36.294	207.755	111.298	16.721	27.130	31.337	22.731	8192	-8191	8192	8192	254	
77185.008	1	1	0	0	222.681	232.229	201.108	4.38007	196.873	103.605	23.7906	294.798	389.197	408.827	364.466	50.6058	323.221	202.298	98.625	560.486	205.369	31.512	206.926	171.729	20.166	25.920	11.047	18.567	8192	-8191	8192	8192	254	
77185.078	1	1	0	0	231.529	203.858	219.626	2.9411	192.567	92.0824	24.8595	292.583	375.543	401.418	374.524	46.6923	312.697	193.394	99.6106	562.611	208.235	32.956	205.281	355.382	20.648	20.825	16.003	17.222	8192	-8191	8192	8192	254	
77185.125	1	1	0	0	189.584	233.627	217.925	3.27082	177.874	97.3942	29.2057	295.77	358.029	418.5	378.745	51.3894	318.947	197.856	109.832	552.875	206.306	33.320	202.873	355.872	23.120	12.813	15.977	18.233	8192	-8191	8192	8192	254	
77185.172	1	1	0	0	238.349	236.936	198.909	9.50867	178.285	90.6462	33.4638	284.252	374.659	421.495	358.322	52.5048	307.947	199.938	101.38	542.111	208.819	33.286	202.950	32.875	17.506	29.951	28.188	21.342	8192	-8191	8192	8192	254	
77185.219	1	1	0	0	219.353	227.125	223.27	2.81786	186.813	96.4363	33.1791	286.533	378.812	414.452	376.365	52.5288	316.014	195.774	104.933	531.923	205.575	35.395	200.375	311.057	20.088	22.894	9.523	22.703	8192	-8191	8192	8192	254	
77185.266	1	1	0	0	222.6	217.535	197.358	5.63513	192.969	95.943	34.0322	287.888	377.548	410.221	363.13	48.8894	310.981	199.803	104.933	546.029	207.421	32.861	205.473	279.814	14.394	30.854	31.731	18.961	8192	-8191	8192	8192	254	
77185.312	1	1	0	0	244.996	236.469	199.055	3.7443	184.51	98.357	21.3922	294.255	380.938	414.899	365.822	51.0769	315.317	190.803	96.9471	567.615	206.176	34.087	206.446	128.046	22.456	19.984	39.514	18.737	8192	-8191	8192	8192	254	
77185.367	1	1	0	0	205.927	212.343	197.869	5.61284	186.845	97.687	28.8678	280.521	365.346	406.274	361.029	53.9615	315.875	202.101	102.481	555.779	201.315	35.143	203.778	155.659	19.801	23.525	17.761	18.228	8192	-8191	8192	8192	254	
77185.414	1	1	0	0	229.121	219.918	211.71	5.65364	200.525	102.801	27.0693	281.307	374.087	405.062	360.26	49.8798	324.966	198.163	95.649	547.101	201.430	34.902	202.733	48.762	18.430	22.686	31.848	19.178	8192	-8191	8192	8192	254	
77185.484	1	1	0	0	225.837	223.415	206.239	0.387507	187.265	95.817	38.6049	290.315	385.24	406.043	361.067	47.9231	312.014	200.361	106.26	556.106	204.134	32.852	203.721	205.553	21.762	28.797	22.453	18.526	8192	-8191	8192	8192	254	
77185.531	1	1	0	0	220.633	224.93	198.622	1.99281	183.955	95.3883	27.4325	288.769	377.197	412.202	357.534	51.0337	317.447	193.986	103.663	553.938	206.416	32.627	206.932	93.286	18.006	18.461	29.550	20.004	8192	-8191	8192	8192	254	
77185.578	1	1	0	0	229.957	235.056	203.968	6.66697	194.35	94.4797	34.0711	296.033	390.534	416.923	362.389	54.6635	320.63	204.053	103.817	553.971	208.664	33.066	204.323	111.647	21.808	29.198	27.161	23.119	8192	-8191	8192	8192	254	
77185.625	1	1	0	0	211.441	230.987	219.978	4.8722	187.182	100.157	32.3278	290.272	365.957	409.375	377.236	49.4135	317.822	203.577	102.452	553.5	205.868	34.581	201.385	162.283	21.728	21.904	19.567	20.367	8192	-8191	8192	8192	254	
77185.680	1	1	0	0	225.642	216.24	201.621	5.43815	184.676	98.0776	35.2893	297.96	382.625	419.413	357.438	48.2548	315.351	199.683	105.721	570.75	205.752	37.451	201.507	329.085	16.048	26.871	35.352	19.529	8192	-8191	8192	8192	254	
77185.727	1	1	0	0	239.365	225.034	212.287	8.16832	176.093	103.241	25.654	282.66	392.913	415.466	378.37	63.6635	331.303	220.375	124.865	575.125	210.853	34.089	203.966	233.124	22.922	29.816	26.034	19.009	8192	-8191	8192	8192	254	
77185.727	1	1	0	0	207.36	231.095	209.577	3.12407	181.861	89.8929	29.6933	282.243	401.812	440.005	397.457	84.6346	340.731	224.385	134.635	582.385	208.614	36.505	203.584	196.800	19.527	20.312	32.873	22.274	8192	-8191	8192	8192	254	
77185.773	1	1	0	0	223.602	218.869	209.368	9.81645	168.921	104.789	30.6613	298.919	404.942	453.245	409.697	87.8462	341.716	234.519	138.197	596.452	204.829	37.425	201.487	100.884	23.134	24.833	16.386	20.409	8192	-8191	8192	8192	254	
77185.820	1	1	0	0	224.555	230.895	194.185	6.5324	176.011	97.1117	25.9723	287.341	408.221	453.212	384.745	85.1923	352.019	235.817	129.572	589.971	202.479	35.700	205.499	328.292	18.116	25.672	31.832	21.413	8192	-8191	8192	8192	254	
77185.867	1	1	0	0	225.957	236.315	222.553	3.64974	196.796	99.8587	40.9429	297.379	431.418	458.567	407.505	86.0337	355.351	242.519	140.856	584.038	208.013	36.538	206.176	350.803	19.931	28.004	26.318	20.725	8192	-8191	8192	8192	254	
77185.914	1	1	0	0	232.215	228.067	220.912	7.94724	204.61	83.4716	35.016	293.149	420.74	451.38	398.144	86.3702	358.822	231.769	139.269	587.668	206.350	35.291	203.853	139.760	15.975	26.271	27.059	21.433	8192	-8191	8192	8192	254	
77185.961	1	1	0	0	217.624	224.226	195.513	4.24272	200.394	93.3837	25.9786	291.736	412.87	457.014	387.899	88.2981	365.755	229.288	129.865	575.577	205.979	30.249	206.518	322.086	23.373	21.596	20.400	20.414	8192	-8191	8192	8192	254	
77186.039	1	1	0	0	200.866	207.868	212.916	2.98688	177.092	96.0582	31.9255	312.058	398.986	446.221	399.731	83.351	350.442	239.601	133.255	590.375	209.129	33.871	200.392	166.937	21.949	18.470	6.154	16.964	8192	-8191	8192	8192	254	
77186.086	1	1	0	0	219.266	219.195	201.608	10.9294	202.79	96.9609	21.0398	303.654	403.236	457.351	396.649	90.1538	360.529	230.74	135.389	584.841	205.346	30.858	208.079	142.795	20.139	20.862	19.187	24.358	8192	-8191	8192	8192	254	
77186.133	1	1	0	0	223.004	229.581	198.892	4.49785	186.278	99.0041	28.5142	301.532	407.327	457.716	392.519	86.9567	349.635	227.625	133.639	572.827	208.344	34.916	207.277	81.267	20.843	26.158	14.686	19.014	8192	-8191	8192	8192	254	
77186.180	1	1	0	0	223.815	206.32	204.352	9.03183	188.686	89.74	38.6149	285.81	390.688	422.034	374.255	70.976	332.096	209.173	113.846	557.279	206.512	35.353	204.951	320.639	22.364	24.188	39.413	18.378	8192	-8191	8192	8192	254	
77186.227	1	1	0	0	221.009	231.11	195.786	4.65692	191.463	106.637	35.9992	279.395	389.409	418.582	361.851	54.0481	317.399	200.793	103.26	548.389	206.303	34.247	204.045	66.371	19.888	22.512	35.619	21.074	8192	-8191	8192	8192	254	
77186.273	1	1	0	0	221.532	231.367	199.952	4.87086	164.413	78.8342	24.5449	297.777	370.423	413.635	350.808	47.5721	308.591	187.101	98.8413	556.404	206.230	35.753	203.146	329.291	23.871	20.284	30.266	20.961	8192	-8191	8192	8192	254	
77186.352	1	1	0	0	229.107	219.476	202.231	8.35598	178.416	92.9021	32.1843	306.71	373.663	409.298	358.418	48.4183	302.24	186.851	96.8077	569.418	205.190	34.825	205.082	323.578	16.659	26.323	16.083	20.447	8192	-8191	8192	8192	254	
77186.398	1	1	0	0	228.562	244.282	220.6	6.62861	180.575	86.8894	34.8392	300.041	375.269	425.832	355.923	43.0817	321.365	190.106	90.6779	547.466	206.268	34.221	202.513	192.235	17.803	26.130	16.819	16.356	8192	-8191	8192	8192	254	
77186.445	1	1	0	0	223.03	231.851	213.226	2.19708	203.127	95.8698	31.3773	300.592	369.587	406.774	351.832	42.0529	319.255	187.87	86.6442	554.962	208.022	38.171	206.297	256.560	17.374	20.676	46.017	20.745	8192	-8191	8192	8192	254	
77186.492	1	1	0	0	220.499	229.289	199.451	2.96406	176.695	99.5489	24.23	292.988	363.668	402.601	356.375	41.6154	308.865	199.26	90.8365	554.543	202.343	33.864	203.170	359.730	17.687	16.169	30.297	19.887	8192	-8191	8192	8192	254	
77186.492	1	1	0	0	209.577	211.179	211.525	3.0188	190.962	84.9836	30.659	272.224	362.822	395.269	355.144	43.9423	301.428	187.611	90.3173	543.053	208.877	34.739	200.991	81.090	20.527	21.444	36.318	20.604	8192	-8191	8192	8192	254	
77186.539	1	1	0	0	233.162	227.175	192.718	8.21754	184.47	94.8495	23.8462	297.846	374.519	403.087	343.846	42.4375	307.37	183.25	90.3029	545.673	205.930	37.021	203.861	84.379	18.127	20.699	38.996	17.590	8192	-8191	8192	8192	254	
77186.586	1	1	0	0	217.698	241.116	194.934	4.48123	192.146	92.03	32.6124	292.582	369.25	411.841	345.889	40.9519	311.986	186.019	94.774	542.952	205.509	33.663	203.486	258.753	22.538	22.989	24.561	19.213	8192	-8191	8192	8192	254	
77186.633	1	1	0	0	223.895	227.514	230.073	9.81135	200.586	86.6911	37.491	304.837	375.019	398.721	361.731	43.899	321.087	182.966	97.7404	557.438	206.198	36.271	205.570	167.401	20.893	21.903	25.935	20.141	8192	-8191	8192	8192	254	
77186.711	1	1	0	0	234.636	214.541	212.315	2.18794	187.701	86.0267	31.0584	293.705	361.423	410.014	361.082	38.6875	317.317	178.236	93.9279	553.111	207.480	31.385	202.307	59.217	22.207	22.873	37.143	17.873	8192	-8191	8192	8192	254	
77186.758	1	1	0	0	228.77	237.476	215.22	1.13219	197.373	97.5187	38.5294	297.226	373.365	422.091	360.591	46.6154	318.822	190.938	91.8365	555.144	207.138	33.458	202.003	44.594	23.018	24.675	37.885	18.252	8192	-8191	8192	8192	254	
77186.805	1	1	0	0	215.356	232.002	204.859	4.83987	191.681	106.338	31.5177	278.654	362.288	414.038	358.322	42.5433	310.986	196.534	92	532.288	207.934	32.455	201.924	323.055	25.741	25.736	31.593	20.687	8192	-8191	8192	8192	254	
77186.852	1	1	0	0	209.852	219.558	202.54	7.7571	179.922	87.9558	29.4959	300.053	349.851	399.26	358.702	45.2548	309.019	191.053	90.9856	548.361	205.028	28.231	204.251	246.004	16.809	20.541	18.265	18.496	8192	-8191	8192	8192	254	
77186.898	1	1	0	0	233.363	213.37	216.482	4.57306	186.451	99.0201	31.5164	297.055	372.385	405.942	356.62	39.0481	313.385	192.337	94.0048	558.601	206.041	38.553	205.535	0.305	17.624	24.083	36.600	19.011	8192	-8191	8192	8192	254	
77186.945	1	1	0	0	214.157	245.484	217.273	3.23014	188.568	84.8818	25.06	284.825	364.942	422.394	352.986	43.1154	311.716	178.832	92.3221	543.226	203.652	33.056	204.809	291.661	21.657	22.713	31.815	20.166	8192	-8191	8192	8192	254	
77187.023	1	1	0	0	209.855	232.251	198.945	8.07214	176.624	99.5903	23.7207	305.804	355.514	421.178	359.341	41.4279	306.952	193.591	94.6635	551.861	205.970	37.685	201.278	76.113	20.745	25.728	22.860	21.413	8192	-8191	8192	8192	254	
77187.070	1	1	0	0	224.202	224.161	218.898	4.18882	205.008	100.472	26.4793	297.413	368.688	409.053	361.861	44.2837	318.683	193.779	91.5865	564.337	206.359	33.935	202.521	90.966	21.214	24.160	6.523	19.627	8192	-8191	8192	8192	254	
77187.117	1	1	0	0	226.081	229.661	223.657	4.91226	195.265	107.251	33.923	293.545	362.712	406.375	358.433	43.5721	314.404	198.284	93.3077	549.865	209.213	31.291	205.309	176.378	19.656	26.360	24.374	20.539	8192	-8191	8192	8192	254	
77187.164	1	1	0	0	235.5	228.109	200.006	7.63758	181.9	87.3459	30.9516	299.74	373.899	407.812	359.365	42.0144	315.736	191	96.1346	561.034	205.143	35.058	205.053	202.064	23.937	20.890	30.423	21.122	8192	-8191	8192	8192	254	
77187.211	1	1	0	0	231.178	225.461	202.097	4.16304	195.579	87.9008	26.7841	280.35	368.183	405.678	356.236	43.2308	312.202	184.793	98.1154	544.822	208.848	34.883	202.350	40.429	20.938	24.146	29.090	21.222	8192	-8191	8192	8192	254	
77187.258	1	1	0	0	216.826	228.282	209.765	2.1199	188.172	92.7495	29.8044	276.818	362.832	413.149	359.635	43.5673	305.745	193.019	95.3365	548.005	206.118	34.356	208.706	229.898	19.311	20.015	24.363	22.696	8192	-8191	8192	8192	254	
77187.258	1	1	0	0	229.14	217.025	215.179	6.13486	191.15	102.964	32.203	277.957	371	409.481	363.793	43.1346	313.827	192.409	93.9952	543.779	205.868	36.344	202.723	59.450	16.142	25.582	33.096	18.571	8192	-8191	8192	8192	254	
77187.305	1	1	0	0	225.1	242.089	202.185	7.63603	196.128	98.7302	36.1668	289.504	375.106	417.452	349.659	42.7548	317.279	186.942	97.8462	545.154	208.205	31.550	206.818	76.634	21.358	23.654	19.147	18.751	8192	-8191	8192	8192	254	
77187.383	1	1	0	0	221.375	224.32	200.448	4.29241	195.443	84.5424	26.8592	272.592	386.106	402.337	359.207	45.6538	314.067	181.226	93.4615	538.745	207.114	33.684	204.389	165.669	17.752	22.807	27.333	19.831	8192	-8191	8192	8192	254	
77187.430	1	1	0	0	219.365	241.808	226.795	5.51677	189.655	95.828	33.2685	299.347	370.452	433.096	359.125	45.3413	315.639	186.812	94.3606	554.125	206.224	35.717	203.266	225.675	24.150	23.373	33.664	22.609	8192	-8191	8192	8192	254	
77187.477	1	1	0	0	223.969	236.992	207.045	2.74328	199.112	101.832	23.3748	296.136	375.697	408.361	357.048	45.4231	314.168	196.144	91.0769	555.707	206.671	33.074	203.816	147.825	16.550	23.426	24.093	22.418	8192	-8191	8192	8192	254	
77187.523	1	1	0	0	232.729	223.803	206.142	3.79947	174.84	84.8583	25.5868	295.888	376.418	412.548	354.764	41.6106	311.524	190.413	95.2212	546.019	207.020	34.866	204.546	164.961	22.771	30.305	11.904	18.352	8192	-8191	8192	8192	254	
77187.570	1	1	6	0	218.241	224.204	204.281	2.48856	190.807	99.6158	29.6278	286.547	363.615	395.471	364.014	44.1346	313.668	200.673	93.7644	544.755	205.955	35.752	204.623	73.790	21.333	23.097	19.601	20.678	8192	-8191	8192	8192	254	
77187.617	1	1	0	0	218.523	230.965	212.042	1.37098	203.245	97.222	27.008	270.691	368.721	401.875	359.822	50.1106	317.553	190.058	92.3077	536.837	206.527	33.864	203.353	332.960	25.403	18.897	15.509	19.294	8192	-8191	8192	8192	254	
77187.672	1	1	0	0	233.085	222.784	213.697	1.64936	193.528	93.6045	33.4415	297.372	368.827	409.13	367.755	44.3942	316.221	190.947	84.7788	549.692	206.184	33.005	204.438	173.817	17.771	27.132	24.200	23.808	8192	-8191	8192	8192	254	
77187.719	1	1	0	0	231.795	233.831	231.997	1.17913	197.635	94.8811	28.1172	286.18	369.654	405.798	371.899	45.1587	328.433	194.125	93.4952	544.212	204.215	35.914	205.825	255.872	21.686	30.075	41.010	22.971	8192	-8191	8192	8192	254	
77187.766	1	1	0	0	217.48	236.349	211.523	5.00843	190.048	93.1597	33.0615	291.216	356.822	417.788	367.822	42.3606	313.101	193	101.014	542.37	204.967	35.724	207.554	262.925	22.157	26.210	33.752	19.034	8192	-8191	8192	8192	254	
77187.812	1	1	0	0	234.97	216.081	219.819	4.45592	187.077	92.4605	33.8955	279.761	367.51	408.913	360.255	40.9471	310.361	194.231	95.0337	534.49	207.739	33.953	203.525	55.130	17.221	22.798	37.125	19.105	8192	-8191	8192	8192	254	
77187.883	1	1	0	0	216.053	211.411	200.465	3.12503	192.602	98.7053	31.1171	298.243	370.154	396.793	342.409	41.4856	319.168	193.798	102.938	541.803	204.951	32.332	203.378	196.668	24.582	26.425	19.893	21.222	8192	-8191	8192	8192	254	
77187.930	1	1	0	0	209.097	210.317	221.461	2.93707	170.595	95.5949	33.8566	279.268	357.63	393.971	368.351	45.6683	312.188	198.933	98.1538	544	206.309	31.596	204.246	192.525	19.181	17.506	16.950	17.075	8192	-8191	8192	8192	254	
77187.984	1	1	0	0	209.848	229.539	191.432	4.21896	205.639	95.375	29.5785	284.43	366.447	415.082	368.442	80.4327	368.125	240.231	151.269	598.548	205.153	37.104	201.708	319.012	18.803	19.728	30.906	20.110	8192	-8191	8192	8192	254	
77188.031	1	1	0	0	213	236.379	215.427	3.96281	177.871	83.6781	32.0729	315.995	421.837	475.784	414.861	96.3654	363.274	243.423	155.317	620.423	204.658	33.496	202.996	2.115	20.076	25.259	10.256	20.464	8192	-8191	8192	8192	254	
77188.031	1	1	0	0	210.697	224.001	221.99	5.80657	198.875	83.4591	27.781	299.639	424.356	457.255	421.034	105.62	384.697	251.082	165.096	624.413	206.807	39.843	201.926	320.839	21.007	20.963	16.914	16.088	8192	-8191	8192	8192	254	
77188.078	1	1	0	0	236.088	222.024	209.421	3.22938	198.11	94.963	30.4629	300.932	436.245	475.51	422.688	121.087	397.236	270.832	173.726	639.077	202.633	34.114	208.833	181.909	20.219	23.647	25.693	21.280	8192	-8191	8192	8192	254	
77188.125	1	1	0	0	226.354	216.123	207.697	3.24063	200.526	96.0425	38.2174	282.366	449.207	465.505	434.279	125.918	385.37	255.562	173.639	622.019	207.496	35.348	201.808	288.602	21.015	25.508	24.536	17.422	8192	-8191	8192	8192	254	
77188.172	1	1	0	0	237.486	215.933	202.593	1.5976	193.515	103.694	36.0873	299.254	458.154	474.827	428.067	115.514	389.952	267.582	165.13	625.101	204.506	26.655	202.893	76.016	21.498	24.895	34.551	17.143	8192	-8191	8192	8192	254	
77188.242	1	1	0	0	216.231	219.063	194.724	3.603	206.903	94.057	32.5122	291.646	433.226	477.846	430.889	108.438	376.808	257.005	165.212	615.375	205.848	34.010	204.036	2.742	17.731	21.516	13.783	23.583	8192	-8191	8192	8192	254	
77188.297	1	1	0	0	221.406	209.582	205.952	8.73206	175.913	89.1804	28.5677	312.107	426.082	467.577	434.01	107.486	384.298	258.538	163.976	621.793	204.338	32.381	204.183	172.493	25.120	25.284	32.459	19.900	8192	-8191	8192	8192	254	
77188.344	1	1	0	0	209.3	233.781	209.57	2.98029	176.398	96.083	40.4478	279.945	423.644	466.567	421.928	116.048	375.837	263.418	159.26	605.062	210.897	33.393	201.999	353.079	22.195	27.701	356.091	21.709	8192	-8191	8192	8192	254	
77188.391	1	1	0	0	216.159	236.838	207.34	2.58312	171.462	94.3881	30.0259	290.664	432.644	470.024	417.192	105.293	371.875	251.875	151.365	619.351	206.019	36.071	205.530	254.442	19.867	23.732	15.735	17.693	8192	-8191	8192	8192	254	
77188.438	1	1	0	0	214.696	231.995	196.787	6.86818	182.923	95.3411	37.2645	315.35	435.865	461.538	411.837	111.562	371.12	261.635	167.721	623.976	206.224	32.605	204.102	162.586	19.638	24.297	41.751	20.240	8192	-8191	8192	8192	254	
77188.484	1	1	0	0	206.712	238.7	197.703	6.062	197.591	100.772	32.5181	308.193	433.889	482.995	430.957	107.904	393.582	265.106	175.125	636.067	204.359	36.445	200.658	35.815	16.799	27.645	9.907	17.293	8192	-8191	8192	8192	254	
77188.555	1	1	0	0	223.318	217.519	217.785	7.12668	188.546	90.9935	31.4974	321.699	441.428	475.928	441.087	119.077	401.865	271.558	179.442	643.841	207.453	34.441	206.845	286.639	21.383	22.503	41.379	20.683	8192	-8191	8192	8192	254	
77188.602	1	1	0	0	208.526	227.872	215.703	6.49242	192.477	103.153	35.1821	287.683	445.399	471.139	435.293	129.255	405.736	277.072	181.601	641.26	201.418	35.850	207.373	144.190	18.432	18.715	31.370	25.317	8192	-8191	8192	8192	254	
77188.648	1	1	0	0	212.421	213.977	185.668	6.78594	180.423	82.5223	34.6443	291.219	448.75	504.043	439.582	141.438	408.034	291.082	183.418	642.736	207.553	29.069	202.336	198.644	18.426	27.245	44.654	22.384	8192	-8191	8192	8192	254	
77188.703	1	1	0	0	224.401	214.847	222.622	4.39005	187.023	100.408	40.8917	310.98	468.558	511.971	480.332	153.904	420.913	303.846	210.745	670.591	203.811	32.939	203.034	301.744	15.206	18.970	14.344	18.237	8192	-8191	8192	8192	254	
77188.750	1	1	0	0	242.389	224	232.577	3.39481	192.813	84.7234	47.0869	302.132	492.562	529.144	495.409	154.428	434.183	307.784	212.404	679.01	207.604	34.071	200.793	97.622	17.320	27.643	26.595	23.139	8192	-8191	8192	8192	254	
77188.797	1	1	0	0	228.046	230.888	218.876	12.6491	187.382	83.5107	34.8728	298.791	492.923	527.505	477.611	167.173	443.995	323.236	201.933	681.202	208.496	34.039	203.697	228.690	18.910	18.116	15.872	21.519	8192	-8191	8192	8192	254	
77188.797	1	1	0	0	221.155	234.301	217.73	14.7221	196.149	83.2413	29.2987	303.776	496.562	534.385	495.346	157.822	444.529	304.091	215.712	681.933	205.890	32.987	204.943	44.985	21.294	17.849	32.343	19.724	8192	-8191	8192	8192	254	
77188.844	1	1	0	0	226.777	227.905	198.925	7.65854	180.934	101.239	40.7344	288.803	490.764	541.938	482.635	164.562	424.947	321.649	215.798	669.365	205.364	34.305	206.437	161.413	18.806	22.932	30.282	19.295	8192	-8191	8192	8192	254	
77188.914	1	1	0	0	208.346	230.058	226.954	15.243	200.628	94.9374	33.5027	297.103	493.591	536.433	492.058	170.322	470.168	326.832	221.514	697.678	205.201	35.585	199.786	138.614	24.104	21.656	28.820	21.568	8192	-8191	8192	8192	254	
77188.961	1	1	0	0	217.774	223.965	213.251	8.25584	182.806	108.986	37.5099	278.734	506.163	536.683	483.082	173.486	465.524	325.817	223.62	669.663	203.143	37.686	205.368	286.981	18.523	22.016	41.407	20.140	8192	-8191	8192	8192	254	
77189.016	1	1	0	0	232.007	251.023	238.483	3.70365	180.482	100.358	35.7639	299.369	513.096	538.034	510.014	181.659	448.298	328.37	242.26	697.471	207.490	33.354	204.580	97.138	20.624	17.744	17.886	23.357	8192	-8191	8192	8192	254	
77189.062	1	1	0	0	219.551	218.329	215.243	5.22645	176.056	94.3829	43.4982	274.104	505.38	525.159	496.572	184.755	428.389	335.183	239.346	685.385	203.508	32.600	204.372	327.548	24.813	35.617	23.154	25.073	8192	-8191	8192	8192	254	
77189.109	1	1	0	0	225.292	222.59	223.68	10.9939	185.407	91.1452	24.978	281.027	513.827	543.005	496.856	186.231	463.236	327.091	235.043	697.923	207.291	30.989	201.218	320.189	16.750	20.447	32.145	16.192	8192	-8191	8192	8192	254	
77189.156	1	1	0	0	225.744	223.107	203.814	7.06522	186.125	100.11	33.3279	291.2	516.779	551.293	495.635	191.058	450.678	339.072	241.928	699.038	207.664	32.833	207.388	307.436	22.155	32.009	31.461	17.848	8192	-8191	8192	8192	254	
77189.203	1	1	0	0	239.996	226.249	185.234	5.7162	180.767	107.068	37.0664	309.199	516.221	559.769	483.13	177.438	456.13	349.726	244.548	713.236	205.066	37.987	206.798	15.052	15.131	28.784	11.041	17.501	8192	-8191	8192	8192	254	
77189.250	1	1	0	0	234.18	229.237	210.384	3.71686	181.232	101.769	15.747	276.905	529.611	538.038	519.995	191.909	448.889	349.51	236.832	713.952	210.865	35.072	209.801	217.419	17.295	23.707	36.409	18.943	8192	-8191	8192	8192	254	
77189.320	1	1	0	0	208.469	223.6	208.874	4.1343	193.913	91.6422	19.1291	308.562	517.606	565.269	519.856	186.688	463.202	353.601	237.889	697.918	201.836	34.764	204.361	295.307	18.964	28.785	19.650	18.874	8192	-8191	8192	8192	254	
77189.375	1	1	0	0	200.914	205.658	163.701	5.15369	99.6277	38.0504	16.7958	36.2844	506.274	514.673	428.284	172.312	298.885	192.702	149.139	173.808	205.743	34.343	198.085	270.185	15.316	15.143	47.597	16.508	8192	-8191	8192	8192	254	
77189.422	1	1	0	0	3.59253	11.4029	7.07946	4.89856	8.00523	14.6976	9.87478	36.928	133.438	122.038	119.082	124.918	127.034	129.649	218.808	1552.79	288.101	255.520	49.086	37.728	195.982	50.055	214.677	94.177	8192	-8191	8192	8192	254	
77189.469	1	1	0	0	70.3838	24.8554	73.9217	39.5597	24.153	15.9465	63.3207	52.4865	6962.96	7294.22	5815.48	5154.22	4875.14	5121.6	5529.63	5485.11	74.772	140.148	94.758	294.517	316.637	85.219	200.125	45.111	8192	-8191	8192	8192	254	
77189.516	1	1	0	0	29.3891	63.9452	28.9583	78.4433	86.4513	28.2263	13.2942	41.0358	6587.45	7179.19	7609.92	7420.89	7646.67	7936.05	7852.15	8004.86	161.514	330.127	261.091	270.188	187.832	86.275	130.129	139.677	8192	-8191	8192	8192	254	
77189.562	1	1	0	0	8.48199	47.4732	101.849	4.59401	71.6494	117.758	79.5023	98.9459	8498.16	9335.75	9456.19	8992.26	9948.03	8495.4	8756.29	5076.16	250.571	268.127	162.584	49.913	268.831	71.834	316.048	304.466	8192	-8191	8192	8192	254	
77189.562	1	1	0	0	12.2824	4.14566	21.7347	11.0747	25.6375	1.6416	15.9884	31.3262	641.601	767.096	850.12	844.168	935.909	1277.65	1822.59	4693.86	293.870	230.034	266.395	341.186	186.577	338.618	126.182	113.888	8192	-8191	8192	8192	254	
77189.609	1	1	0	0	43.3835	64.2625	73.0954	63.4389	42.1131	71.2406	30.7913	13.9603	6201.97	8387.31	8974.38	8387.44	7337.31	4534.86	1080.5	665.173	110.066	136.988	280.052	138.075	330.690	314.550	280.603	248.265	8192	-8191	8192	8192	254	
77189.688	1	1	0	0	5.74178	22.1623	19.5622	8.4101	17.5606	6.90134	11.9678	22.3339	628.74	619.856	609.062	640.558	635.572	642.899	669.178	680.332	237.016	194.383	236.191	28.376	53.091	35.955	62.954	14.035	8192	-8191	8192	8192	254	
77189.734	1	1	0	0	20.1184	27.115	13.1859	15.1657	0.697263	25.4648	4.22747	14.167	708.154	725.601	730.481	753.587	767.293	781.197	796.668	823.928	3.797	28.645	214.184	286.210	65.081	104.066	157.504	76.063	8192	-8191	8192	8192	254	
77189.781	1	1	0	0	5.74585	6.60321	20.8154	7.74741	13.7981	20.1467	12.7656	10.6046	872.803	871.63	928.361	910.365	929.216	938.779	965.298	1009.12	227.966	124.394	89.410	200.586	123.917	302.549	169.433	44.897	8192	-8191	8192	8192	254	
77189.828	1	1	0	0	6.57422	16.4058	31.6712	21.8017	12.434	24.2364	41.7305	12.1117	1017.37	1055.54	1055.1	1079.04	1075.56	1123.12	1103.82	1054.99	279.024	98.109	65.631	60.321	283.734	135.814	297.311	200.974	8192	-8191	8192	8192	254	
77189.875	1	1	0	0	10.5366	25.0783	21.8894	25.504	19.5511	13.5975	3.88413	17.9644	1038.45	1026.5	974.385	998.673	1044.39	890.163	856.505	906.438	24.545	222.975	97.967	282.893	146.229	286.762	248.263	155.301	8192	-8191	8192	8192	254	
77189.922	1	1	0	0	19.8177	19.2587	22.2553	3.46423	14.8214	23.6092	45.7517	20.4846	1095.01	1205.65	1264.04	1230.42	1305.85	1316.54	1347.49	1353.15	127.873	311.174	13.588	152.377	96.624	177.319	338.977	286.701	8192	-8191	8192	8192	254	
77189.977	1	1	0	0	21.6404	37.9441	15.0929	15.1297	21.5811	21.1873	14.2728	7.26583	1387.61	1356.4	1397.72	1337	1351.99	1348.76	1337.19	1331.33	4.545	30.357	265.617	262.613	36.820	95.266	293.784	42.511	8192	-8191	8192	8192	254	
77190.023	1	1	0	0	23.2441	4.8058	3.57814	2.47876	20.7024	26.2645	20.9091	22.2458	1339.84	1334.65	1311.05	1309.61	1269.41	1268.9	1275.75	1282.94	284.259	239.666	298.591	262.125	30.402	43.699	27.075	5.430	8192	-8191	8192	8192	254	
77190.070	1	1	0	0	13.8358	5.77508	39.5049	4.59243	19.4133	6.25766	26.6761	18.1326	1265.66	1265.89	1267.67	1251.29	1258.33	1257.03	1217.83	1203.07	17.674	107.217	103.261	281.310	203.088	202.243	49.812	157.441	8192	-8191	8192	8192	254	
77190.117	1	1	0	0	4.12815	7.16199	9.74292	16.9909	10.5364	32.1711	19.0375	5.33288	1182.69	1190.08	1175.97	1164.03	1160.45	1161.13	1156.7	1158.67	258.755	180.725	80.988	98.548	322.752	17.772	139.398	228.075	8192	-8191	8192	8192	254	
77190.188	1	1	0	0	14.3047	17.5474	11.4313	5.86916	22.8208	25.8429	17.3601	21.6173	1133.13	1154.49	1125.07	1141.93	1165.3	1187.66	1202.45	1222.11	108.819	16.988	140.619	197.681	268.800	306.040	291.892	65.488	8192	-8191	8192	8192	254	
77190.234	1	1	0	0	15.7795	19.6653	1.59991	36.7748	27.6551	61.8205	20.9086	40.1202	1228.48	1259.57	1271.09	1252.75	1362.29	1633.16	2400.71	2963.09	6.805	359.939	309.194	68.736	345.851	121.199	144.202	55.367	8192	-8191	8192	8192	254	
77190.281	1	1	0	0	63.8255	63.0277	18.5676	41.8385	53.1502	20.6161	50.1063	15.9025	5342.44	5468.26	5523.03	5455.56	5439.61	5472.45	5397.04	5394.29	62.992	215.532	235.135	204.366	0.436	103.997	4.625	97.966	8192	-8191	8192	8192	254	
77190.328	1	1	0	0	37.1872	32.8837	21.098	26.6131	76.6365	45.041	43.0307	40.9415	5373.91	5336.51	5322.16	5312.98	5339.91	5277.17	5284.3	5340.15	140.460	358.279	190.886	196.414	305.394	119.927	108.773	47.963	8192	-8191	8192	8192	254	
77190.336	1	1	0	0	57.8283	25.7269	18.5169	32.2514	65.6805	23.7552	68.7182	22.1958	5354.91	5372.02	5332.42	5344.62	5256.89	5334.25	5275.9	5232.62	74.185	193.536	231.943	175.317	227.794	81.873	249.093	322.691	8192	-8191	8192	8192	254	
77190.383	1	1	0	0	25.4772	21.6184	22.7471	50.8917	22.1102	16.9233	37.3693	2.72527	5214.1	5227.63	5092.89	5136.52	5120.85	5104.12	5140.14	5153.94	169.932	260.117	223.610	88.970	197.961	102.914	208.644	201.053	8192	-8191	8192	8192	254	
77190.430	1	1	0	0	30.7789	20.783	72.3819	51.9776	33.8498	8.04857	54.2012	10.7489	5149.12	5122.2	5192.82	5199.02	5269.13	5479.36	5689.17	5642.45	235.828	299.437	58.536	145.251	13.928	68.174	108.320	24.717	8192	-8191	8192	8192	254	
77190.477	1	1	0	0	41.8634	20.2052	44.2951	56.035	17.9386	20.9192	20.7673	7.22928	5664.38	5634.91	5671.15	5657.73	5652.23	5697.74	5652.88	5670.58	300.178	185.504	324.698	253.716	46.075	55.791	225.673	240.479	8192	-8191	8192	8192	254	
77190.547	1	1	0	0	52.1284	50.8164	62.4699	19.5346	37.3587	34.7781	32.1246	52.5929	5708.56	5788.8	5841.44	5883.57	5958.35	6032.88	6165.5	6263.49	61.888	128.885	229.181	344.412	49.175	249.129	291.667	323.623	8192	-8191	8192	8192	254	
77190.594	1	1	0	0	51.9268	10.3297	49.1811	47.2723	68.2931	87.653	43.1877	51.1295	6366.26	6522.88	6614.23	6787.56	6764.82	6841.96	6870.64	6866.26	114.956	260.948	41.653	3.229	27.290	322.683	96.036	3.269	8192	-8191	8192	8192	254	
77190.641	1	1	0	0	64.5419	67.4566	54.7805	58.9024	5.13942	70.9493	47.1668	41.4043	6811.77	6792.49	6736.52	6700.56	6633.62	6614.71	6563.63	6549.98	143.306	190.693	268.988	291.112	99.183	348.621	331.201	22.916	8192	-8191	8192	8192	254	
77190.695	1	1	0	0	68.1256	22.1376	26.8751	47.1894	31.6803	24.5266	45.5858	38.0463	6587.29	6576.71	6481.76	6412.38	6420.23	6357.51	6229.73	6250.59	289.012	352.221	313.905	47.023	10.632	207.988	148.481	59.549	8192	-8191	8192	8192	254	
77190.742	1	1	0	0	50.4345	43.2797	14.2336	12.488	64.4185	95.8758	35.789	31.5737	6180.12	6131.36	6136.83	6133.09	6063.41	6058.1	6106.46	6050.38	78.674	53.700	141.512	355.674	55.444	188.072	282.324	290.459	8192	-8191	8192	8192	254	
77190.789	1	1	0	0	62.1459	24.5855	35.3201	53.6208	36.1998	78.032	7.51993	59.0372	6091.57	5995.5	6024.14	6020.02	5931.34	5854.62	5786.68	5661.42	43.369	17.341	120.676	49.885	26.476	144.219	25.963	256.848	8192	-8191	8192	8192	254	
77190.859	1	1	0	0	50.4269	43.6483	27.8918	71.7819	104.326	46.5218	14.2156	37.7733	5583.3	5404.43	5237.27	5093.65	5014.81	4914.2	4910.32	4881.08	128.063	11.061	162.172	257.081	242.038	347.888	8.953	153.364	8192	-8191	8192	8192	254	
77190.906	1	1	0	0	32.8366	50.0749	18.9813	29.0413	39.4362	64.7914	74.0725	20.0981	4818.1	4801.73	4795.91	4768.04	4731.52	4690.39	4551.64	4477.06	335.689	236.358	34.490	257.651	219.029	2.507	193.366	32.382	8192	-8191	8192	8192	254	
77190.953	1	1	0	0	61.2844	7.05504	7.11737	3.85009	11.263	8.86572	14.7042	1.47517	1930.69	307.149	150.635	141.284	121.389	139.524	139.159	131.51	329.277	99.651	343.119	111.255	327.977	58.785	129.422	21.693	8192	-8191	8192	8192	254	
77191.008	1	1	0	0	7.94377	5.43402	2.44353	4.85178	8.61029	17.1916	2.31001	10.2865	131.639	134.712	129.236	125.312	137.712	137.394	134.038	127.788	90.552	51.920	286.153	201.881	183.258	261.008	25.383	279.506	8192	-8191	8192	8192	254	
77191.055	1	1	0	0	6.74559	4.03199	4.3534	9.84097	6.7653	7.4584	11.2734	7.59051	140.163	142.894	125.183	132.947	132.572	134.812	138.952	137.75	295.144	146.682	344.987	359.446	288.638	208.824	156.180	31.699	8192	-8191	8192	8192	254	
77191.102	1	1	0	0	8.16247	3.11704	3.07183	2.42925	2.65404	4.78658	8.48821	10.5862	128.721	136.255	133.207	131.716	138.284	138.115	128.019	129.981	82.708	188.573	13.813	49.619	139.124	91.212	36.190	41.120	8192	-8191	8192	8192	254	
77191.102	1	1	0	0	13.9677	11.2992	7.44502	8.55427	1.49068	7.55382	8.27581	11.9055	135.817	133.096	134.99	128.837	127.731	129.803	132.962	159.904	277.292	2.413	17.412	108.371	1.066	15.915	53.920	34.198	8192	-8191	8192	8192	254	
77191.148	1	1	0	0	14.559	30.411	49.108	11.1159	60.8124	22.9983	3.60865	81.9611	210.62	278.923	361.909	271.298	358.832	326.933	285.986	423.803	163.986	45.545	206.299	0.234	15.596	38.382	167.694	28.083	8192	-8191	8192	8192	254	
77191.195	1	1	0	0	62.2098	56.4424	40.4459	0.956819	34.5788	24.7724	17.8863	101.512	359.288	359.13	359.962	273.62	340.159	315.163	279.303	414.904	219.506	39.797	199.918	237.627	43.795	13.128	39.894	24.687	8192	-8191	8192	8192	254	
77191.242	1	1	0	0	64.6334	56.0639	67.8944	6.6407	58.5483	18.5852	12.1721	99.4057	345.769	362.486	343.601	250.707	328.413	294.245	264.702	402.654	216.916	39.719	208.224	329.841	22.348	22.067	9.189	23.269	8192	-8191	8192	8192	254	
77191.312	1	1	0	0	57.731	50.6821	57.4028	12.3302	46.2819	38.6259	19.4109	97.2902	336.663	339.5	326.332	228.817	302.452	266.548	231.428	367.375	213.073	32.708	213.786	88.239	23.844	61.902	19.902	26.425	8192	-8191	8192	8192	254	
77191.367	1	1	0	0	65.6093	63.233	65.2023	3.21184	46.9008	27.8934	11.6941	91.7661	309.74	304.457	286.125	193.692	276.889	236.986	194.683	344.337	207.757	39.245	209.104	326.689	34.855	15.462	34.753	23.165	8192	-8191	8192	8192	254	
77191.414	1	1	0	0	69.6269	72.0016	59.8563	3.87513	63.0438	19.7458	28.7706	90.8663	270.582	274.49	261.832	168.769	244.178	212.788	168.399	320.611	221.658	39.038	209.468	317.352	25.379	13.053	40.653	28.894	8192	-8191	8192	8192	254	
77191.461	1	1	0	0	71.7179	65.8784	46.8148	7.70226	70.9346	35.6764	9.53608	97.2424	241.856	240.861	235.298	133.043	220.409	178.163	138.678	287.774	220.014	39.171	207.391	273.861	32.983	35.208	39.778	21.472	8192	-8191	8192	8192	254	
77191.508	1	1	0	0	76.0753	73.7738	69.1541	1.15564	59.5494	25.5267	16.9229	98.1718	219.149	220.01	206.654	105.63	192.726	155.793	119.99	272.654	202.242	36.253	215.262	148.697	14.601	26.750	21.141	20.455	8192	-8191	8192	8192	254	
77191.555	1	1	0	0	65.6572	73.6639	66.1729	3.36337	65.0105	34.4288	5.76265	81.3367	208.202	207.635	190.971	100.404	187.01	156.226	117.409	246.466	218.386	44.564	214.987	268.996	30.273	35.071	26.469	27.555	8192	-8191	8192	8192	254	
77191.633	1	1	0	0	70.0197	59.4724	53.2807	4.84313	49.3279	16.5931	12.2437	95.4906	188.462	197.75	185.894	104.846	179.894	145.062	114.981	254.322	216.295	43.654	207.623	110.587	25.259	50.597	24.556	20.431	8192	-8191	8192	8192	254	
77191.680	1	1	0	0	59.073	57.7232	59.1845	2.51972	50.5832	34.225	12.0914	82.0539	187.529	202.707	197.144	112.529	185.014	152.745	119.37	248.038	217.858	45.965	201.422	234.065	22.800	48.331	52.095	30.428	8192	-8191	8192	8192	254	
77191.727	1	1	0	0	56.6649	58.9591	57.7058	3.8017	39.956	31.1646	11.0879	81.6157	195.303	197.168	180.635	99.4327	179.51	141.486	122.962	249.25	209.453	42.283	216.506	359.383	14.475	35.474	60.823	28.431	8192	-8191	8192	8192	254	
77191.773	1	1	0	0	58.1413	60.7418	45.6526	7.83353	54.2676	21.3315	7.98597	95.4887	190.26	202.774	187.865	113.091	191.75	150.269	127.264	258.832	201.589	41.375	210.990	152.878	25.025	49.324	29.556	21.635	8192	-8191	8192	8192	254	
77191.820	1	1	0	0	61.9799	56.363	45.7255	2.8835	48.1869	34.9445	10.2461	87.7206	202.197	210.663	190.25	110.577	185.596	158.202	122.808	247.212	206.646	46.786	210.370	154.394	22.188	20.213	17.862	26.314	8192	-8191	8192	8192	254	
77191.867	1	1	0	0	71.1416	56.0922	58.0274	7.02825	52.9381	27.0594	5.96308	86.9658	206.274	205.514	199.596	107.736	177.981	153.803	119.712	247.058	212.452	34.621	217.943	65.209	30.117	19.573	28.180	24.909	8192	-8191	8192	8192	254	
77191.867	1	1	0	0	59.2345	59.8501	61.6778	2.8237	60.9562	28.6144	4.96009	89.6536	194.409	201.87	189.226	99.1058	177.264	145.462	116.668	252.808	208.255	52.321	201.507	291.854	29.347	34.648	93.154	29.540	8192	-8191	8192	8192	254	
77191.914	1	1	0	0	54.9222	64.0322	59.5987	6.78554	61.0794	22.1365	12.0774	94.2992	177.692	200.952	181.981	107.341	178.471	147.38	117.346	245.62	218.615	34.447	203.081	141.939	31.612	43.206	90.357	30.969	8192	-8191	8192	8192	254	
77191.992	1	1	0	0	55.1711	53.9132	54.4936	5.94158	58.5265	27.0616	12.4742	85.3503	193.606	184.904	178.13	100.697	182.76	131.476	114.37	249.87	207.172	42.184	194.570	169.827	25.718	28.901	5.088	19.744	8192	-8191	8192	8192	254	
77192.039	1	1	0	0	52.7579	57.4103	55.6708	2.22553	50.4391	32.9192	12.8454	76.4694	184.716	192.476	178.236	104.442	170.649	142.663	113.673	241.957	214.917	34.270	205.134	176.883	26.293	23.711	11.592	31.290	8192	-8191	8192	8192	254	
77192.086	1	1	0	0	58.3782	69.7273	52.452	6.09694	43.6675	24.9942	10.0384	76.94	195.308	194.423	181.88	98.7933	170.707	148.192	116.63	250.337	210.866	40.194	207.025	341.719	27.254	12.749	54.909	30.709	8192	-8191	8192	8192	254	
77192.133	1	1	0	0	50.7584	53.1107	59.4482	9.77273	57.8823	26.8599	8.09208	86.9527	189.37	195.659	187.51	104.014	187.149	152.591	122.442	264.149	208.889	38.471	206.538	339.462	29.221	26.320	57.508	17.686	8192	-8191	8192	8192	254	
77192.180	1	1	0	0	63.9606	70.8249	51.4796	2.63049	48.1648	31.1503	13.8217	85.7341	199.303	207.288	191.885	110.389	190.639	149.88	125.312	258.933	199.842	49.089	197.229	119.602	28.709	35.780	47.617	27.217	8192	-8191	8192	8192	254	
77192.227	1	1	0	0	51.7548	59.4568	55.5756	7.51822	49.5557	31.5725	10.2631	92.5723	196.793	203.101	187.438	108.976	184.471	157.486	120.332	259.591	200.110	49.501	206.887	329.507	25.432	43.141	45.344	29.673	8192	-8191	8192	8192	254	
77192.273	1	1	0	0	59.3425	61.4934	58.4685	6.33705	59.4622	36.4744	6.56857	87.2081	202.139	203.264	190.615	114.962	193.091	158.293	123.683	248.452	197.953	40.834	206.865	317.619	20.077	32.193	0.243	25.266	8192	-8191	8192	8192	254	
77192.320	1	1	0	0	73.1902	60.7172	65.9388	6.9855	45.611	28.9238	17.5053	72.0039	193.26	195.481	188.673	107.74	184.75	149.038	126.572	247.207	213.640	38.028	206.442	271.639	24.129	16.295	44.449	25.996	8192	-8191	8192	8192	254	
77192.398	1	1	0	0	50.7352	73.9394	44.9982	10.138	48.2768	30.8166	9.83999	78.2161	192.712	200.178	187.495	109.005	187.514	152.822	120.01	255.101	209.144	34.761	207.743	159.673	23.120	17.156	347.589	31.466	8192	-8191	8192	8192	254	
77192.445	1	1	0	0	64.6073	66.4422	38.8837	1.80648	48.0275	24.2003	14.7419	74.532	201.433	213.096	186.332	103.279	177.274	146.543	133.601	246.981	194.256	38.126	226.876	10.005	19.083	33.470	4.562	26.322	8192	-8191	8192	8192	254	
77192.492	1	1	0	0	62.6399	65.1555	43.274	4.82142	63.0088	23.7536	15.4982	91.5132	200.678	197.827	193.413	105.462	182.615	155.736	125.918	251.053	208.258	46.841	223.970	122.259	25.476	26.110	0.491	23.438	8192	-8191	8192	8192	254	
77192.539	1	1	0	0	56.8534	64.6679	62.4565	2.98332	60.0035	21.9424	12.9967	93.1674	197.837	203.216	191.966	113.284	183.178	159.471	123.562	260.115	226.721	48.351	214.101	190.662	26.507	46.114	20.456	30.132	8192	-8191	8192	8192	254	
77192.586	1	1	0	0	62.7137	62.9466	55.5297	8.33783	49.3298	24.7555	4.24156	82.2679	201.308	206.63	205.952	111.774	180.885	155.125	127.659	252.058	219.744	41.023	205.063	175.105	24.972	26.987	9.110	30.964	8192	-8191	8192	8192	254	
77192.633	1	1	0	0	64.8155	51.0978	55.0757	6.44013	49.0542	30.6604	4.65512	81.6754	195.827	209.486	198.101	116.019	186.12	157.88	122.212	253.75	212.069	22.997	209.632	288.586	20.875	28.503	321.171	35.955	8192	-8191	8192	8192	254	
77192.633	1	1	0	0	53.2661	63.4337	52.5206	2.42283	48.707	22.3287	22.1366	68.4308	191.894	200.837	185.096	109.245	176.62	149.163	113.721	234.75	211.678	38.444	203.056	20.835	23.016	47.386	48.784	26.196	8192	-8191	8192	8192	254	
77192.688	1	1	0	0	58.2955	58.9578	55.1491	4.69443	49.4631	29.3785	8.88831	75.596	186.553	199.183	185.087	101.582	169.808	140.63	114.457	244.144	204.579	47.296	212.441	269.319	18.264	50.259	3.253	16.837	8192	-8191	8192	8192	254	
77192.734	1	1	0	0	44.9305	69.0605	54.073	5.7761	50.7705	13.322	9.03074	80.067	179.851	194.01	187.582	99.8558	166.894	137.942	113.322	244.197	206.868	41.650	198.835	316.558	36.388	2.350	37.469	27.297	8192	-8191	8192	8192	254	
77192.781	1	1	0	0	67.4481	57.6861	52.2893	12.3256	58.8121	35.6527	7.14529	85.6678	183.293	183.601	175.707	98.375	168.221	134.048	118.303	247.25	215.470	36.095	225.645	92.070	27.184	36.100	15.438	23.499	8192	-8191	8192	8192	254	
77192.852	1	1	0	0	70.4929	65.9891	51.5606	6.30246	38.0199	37.8853	6.53599	77.277	187.082	191.308	178.75	97.25	153.481	138.822	111.197	238.106	209.781	40.930	219.088	348.712	23.900	23.448	100.382	24.190	8192	-8191	8192	8192	254	
77192.898	1	1	0	0	66.5538	50.4918	53.6742	3.93476	51.3614	24.5762	7.00517	79.8652	178.851	183.423	165.014	89.0817	169.731	141.13	102.909	247.202	218.099	48.060	214.765	214.337	30.342	26.692	27.068	30.270	8192	-8191	8192	8192	254	
77192.945	1	1	0	0	65.1469	62.0467	43.8323	8.00769	55.2458	25.7278	11.3014	93.3866	177.284	187.236	169.255	87.1683	157.231	128.558	93.9471	224.394	209.659	27.963	212.514	103.735	21.176	34.024	55.296	20.378	8192	-8191	8192	8192	254	
77192.992	1	1	0	0	67.1253	54.2876	47.7886	2.31943	58.0089	21.9014	12.3754	83.8755	170.26	169.49	161.63	74.8654	143.827	104.082	80.601	207.87	220.828	33.498	208.914	172.967	26.674	25.515	56.300	27.677	8192	-8191	8192	8192	254	
77193.047	1	1	7	0	65.0299	75.0225	48.3003	2.27759	53.4374	42.2588	7.68798	86.9094	143.822	160.293	135.938	57.9375	130.125	96.5817	62.1058	199.144	208.152	41.997	215.661	158.861	32.586	36.456	24.008	30.359	8192	-8191	8192	8192	254	
77193.094	1	1	0	0	59.4514	61.7014	49.9159	3.20629	38.0145	24.2272	6.95071	77.7316	138.51	142.125	131.601	49.6346	116.255	91.9712	60.1394	187.12	211.909	44.609	214.263	28.549	29.323	21.879	15.033	28.730	8192	-8191	8192	8192	254	
77193.164	1	1	0	0	55.9875	61.4444	42.7682	1.13066	48.9653	33.3537	10.4062	82.8347	137.375	151.404	133.486	47.7933	119.966	89.4375	61.3702	189.534	211.347	38.098	211.542	258.443	11.934	29.211	44.411	28.283	8192	-8191	8192	8192	254	
77193.211	1	1	0	0	57.6437	57.0523	57.7611	6.40505	49.3783	35.5695	8.39669	77.3725	136.25	139.615	133.12	47.3702	121.12	95	61.9038	181.279	212.088	39.225	215.698	5.100	24.660	12.749	10.136	20.467	8192	-8191	8192	8192	254	
77193.258	1	1	0	0	49.2316	51.5199	62.8726	5.03344	49.2888	29.9076	9.71074	79.0277	133.399	135.519	131.731	52.0096	117.231	92.0192	63.2981	196.856	212.403	42.434	209.616	261.376	26.849	35.344	32.093	25.295	8192	-8191	8192	8192	254	
77193.312	1	1	0	0	61.1697	61.3012	44.5819	4.77539	50.1278	32.2445	1.34051	84.0218	132.87	140.038	129.447	45.4327	122.577	89.9856	62.4952	201.428	202.964	48.190	216.130	166.415	12.468	46.732	153.227	33.379	8192	-8191	8192	8192	254	
77193.359	1	1	0	0	57.037	60.3095	52.9114	2.38198	52.536	30.6013	8.70025	82.6254	140.654	169.394	149.721	71.1058	146.135	111.736	84.8221	221.433	210.528	38.011	204.324	129.566	29.118	38.882	6.192	26.051	8192	-8191	8192	8192	254	
77193.406	1	1	0	0	50.1238	59.2186	58.5575	3.76774	54.4209	24.2675	11.9614	70.7442	152.889	159.707	148.644	62.9327	144.356	104.375	84.3413	212.221	206.336	37.599	210.984	239.059	26.899	28.991	37.395	25.996	8192	-8191	8192	8192	254	
77193.406	1	1	0	0	56.237	63.943	58.4303	5.02968	47.8636	23.8869	12.2245	86.374	138.702	150.447	144.712	59.9663	130.894	100.303	70.625	203.144	221.793	44.915	216.340	305.993	22.472	34.436	0.276	32.409	8192	-8191	8192	8192	254	
77193.453	1	1	0	0	64.4741	56.2967	52.4729	1.08747	52.5232	31.6131	10.9189	82.4488	143.817	143.909	135.163	48.649	119	97.8462	65.1298	189.832	210.572	43.537	211.861	281.842	33.002	27.040	0.350	19.992	8192	-8191	8192	8192	254	
77193.523	1	1	0	0	55.6755	58.8269	48.789	2.39809	58.0331	24.078	12.083	76.0578	133.938	138.649	133.519	50.4279	135.817	88.2356	62.1202	186.817	204.892	26.383	205.681	6.777	25.806	44.421	0.617	24.160	8192	-8191	8192	8192	254	
77193.570	1	1	0	0	65.4484	56.2166	54.5843	1.91259	54.0623	25.0065	9.76856	85.4214	138.399	139.5	133.481	51.1346	122.817	96.6346	67.1298	193.986	214.766	41.901	204.029	134.678	25.648	24.817	21.083	23.432	8192	-8191	8192	8192	254	
77193.617	1	1	0	0	58.4871	51.1855	63.5037	2.45602	51.768	21.9217	5.70989	87.3025	130.875	145.76	133.865	54.976	121.524	91.8269	65.4663	200.12	211.284	38.254	215.109	50.712	25.590	22.725	19.354	30.823	8192	-8191	8192	8192	254	
77193.672	1	1	0	0	57.0181	68.5764	52.8883	4.20222	51.3907	31.952	14.2863	77.3679	137.245	152.697	133.173	53.8317	131.736	94.0817	64.7356	195.918	212.011	32.788	208.645	257.914	23.691	19.083	14.880	26.565	8192	-8191	8192	8192	254	
77193.719	1	1	0	0	58.8541	58.3176	59.9398	2.3301	44.8502	27.7304	10.5686	82.5487	137.101	136.688	139.332	50.7163	120.683	92.476	67.4712	201.635	207.910	39.724	205.572	196.917	31.902	29.933	49.993	22.983	8192	-8191	8192	8192	254	
77193.766	1	1	0	0	67.4699	68.8018	62.01	5.98509	56.9593	29.0958	9.24566	85.3009	146.091	154.5	137.476	50.9038	129.837	92.6827	63.7596	198.918	208.577	39.224	213.664	38.858	19.276	18.894	19.180	18.125	8192	-8191	8192	8192	254	
77193.812	1	1	0	0	50.9351	56.8621	60.8601	0.761221	41.7365	24.76	8.53633	76.0496	137.947	147.966	147.543	51.3077	125.466	93.9567	71.2163	196.659	213.457	45.815	206.066	133.670	32.676	27.299	24.671	26.547	8192	-8191	8192	8192	254	
77193.859	1	1	0	0	58.8212	59.9254	51.9982	6.87902	57.6051	22.891	11.9872	75.629	139.37	148.284	132.428	52.0577	126.942	95.9663	66.8702	198.947	216.532	36.561	214.012	319.097	27.985	25.060	43.618	33.681	8192	-8191	8192	8192	254	
77193.930	1	1	0	0	64.9375	62.8755	59.6841	3.04967	51.5918	32.7896	7.05265	85.1163	146.202	155.697	138.548	55.4423	132.399	100.322	66.7163	197.476	213.963	37.792	206.573	84.517	21.472	36.715	20.507	21.893	8192	-8191	8192	8192	254	
77193.977	1	1	0	0	60.9542	55.5904	55.4223	6.5155	45.4911	22.8969	11.1346	75.6947	138.587	145.087	137.832	53.3654	122.13	93.1298	69.2067	202.606	196.996	49.757	213.314	108.498	26.158	31.443	50.007	22.092	8192	-8191	8192	8192	254	
77194.031	1	1	0	0	60.3169	56.1827	59.7691	4.54776	53.1354	29.3389	11.9127	84.5214	144.659	151.029	130.846	52.7692	130.601	98.6827	67.5144	210.885	208.743	40.883	207.042	196.451	29.224	22.636	3.939	24.587	8192	-8191	8192	8192	254	
77194.078	1	1	0	0	57.6896	53.1729	57.5015	2.6711	44.3798	26.2997	14.1199	91.1168	138.245	150.466	136.115	50.2548	121.303	94.3558	69.0913	209.702	208.724	37.136	202.620	67.802	28.065	23.388	18.842	26.241	8192	-8191	8192	8192	254	
77194.125	1	1	0	0	53.4568	53.026	60.0852	2.63693	56.1867	29.2805	11.7337	79.9771	130.178	143.26	138.279	49.9615	129.337	96.8269	65.8029	201.062	213.035	38.502	214.170	22.794	20.578	31.149	7.129	30.046	8192	-8191	8192	8192	254	
77194.172	1	1	0	0	66.2002	55.994	47.6519	3.0029	52.0161	24.0411	10.8564	85.2377	142.582	144.404	128.889	54.3125	124.072	91.6298	63.5481	202.01	211.371	44.536	217.316	160.029	29.630	14.556	9.637	19.897	8192	-8191	8192	8192	254	
77194.172	1	1	0	0	63.9983	69.5728	45.2034	5.8873	50.4762	29.5863	10.023	92.2009	134.067	149.774	129.707	47.3077	134.481	97.75	63.6779	196.654	210.927	40.384	203.495	67.597	33.365	14.947	34.619	25.062	8192	-8191	8192	8192	254	
77194.219	1	1	0	0	56.6672	56.5422	53.5851	4.11108	60.7452	27.8663	11.295	83.6701	136.702	140.12	130.043	50.4231	128.26	98.3029	62.5481	190.827	211.862	40.887	205.706	236.971	27.660	32.908	24.114	21.594	8192	-8191	8192	8192	254	
77194.266	1	1	0	0	55.2841	48.9913	47.6094	3.60661	44.6525	37.0657	14.0377	90.3235	133.048	145.288	140.928	50.8029	116.986	89.0433	69.6683	194.74	213.350	43.405	209.175	192.300	27.449	21.373	33.587	27.720	8192	-8191	8192	8192	254	
77194.320	1	1	0	0	58.3514	59.4331	58.1109	1.99667	46.4927	29.7725	15.6943	84.817	129.942	149.587	128.01	45.5433	121.423	89.2885	59.6394	191.428	217.698	52.750	207.009	289.592	35.759	31.239	37.539	20.971	8192	-8191	8192	8192	254	
77194.391	1	1	0	0	59.6792	53.6622	57.4215	2.07563	53.4364	30.1678	4.90875	71.955	139.712	138.062	133.861	47.9423	123.207	89.875	61.0817	190.399	212.298	44.503	202.282	122.952	35.063	34.297	32.366	19.642	8192	-8191	8192	8192	254	
77194.438	1	1	0	0	59.4513	51.4716	54.6339	4.45154	55.266	26.8275	9.77562	86.3913	134.264	142.851	128.51	47.774	125.673	87.7452	59.5433	199.005	206.147	35.959	210.043	12.795	17.639	25.220	20.724	24.646	8192	-8191	8192	8192	254	
77194.484	1	1	0	0	61.6651	57.9491	58.9472	7.99507	51.4935	25.606	7.61037	88.2229	136.25	142.712	129.034	51.6827	122.519	91.3269	57.4183	191.534	219.855	37.368	211.062	204.022	27.704	33.361	63.968	27.495	8192	-8191	8192	8192	254	
77194.531	1	1	0	0	57.5611	53.3614	56.8639	1.14773	60.447	33.4071	8.42967	73.5035	133.649	134.51	135.423	48.3317	127.562	87.6106	58.8221	197.524	213.114	39.379	215.126	317.222	28.968	30.652	71.391	23.669	8192	-8191	8192	8192	254	
77194.578	1	1	0	0	55.9794	52.5928	61.9642	4.72459	49.8958	31.1761	17.9077	88.2584	133.178	141.101	130.192	45.9423	119.192	92.3462	67.7019	189.779	215.277	47.396	204.196	30.202	30.578	16.095	13.977	27.506	8192	-8191	8192	8192	254	
77194.625	1	1	0	0	61.8556	59.2138	49.3767	0.594153	52.5595	31.5067	11.5582	87.6908	129.12	142.447	131.212	49.0721	118.745	91.1635	61.8558	192.663	211.582	42.621	205.575	329.925	21.915	40.019	50.257	26.740	8192	-8191	8192	8192	254	
77194.680	1	1	0	0	54.7089	49.1836	60.7847	4.91703	56.7225	21.1255	5.15501	79.1288	133.913	135.577	136.851	50.4423	123.894	89.8125	60.5913	189.091	218.320	26.559	208.744	78.603	28.588	18.884	10.411	14.962	8192	-8191	8192	8192	254	
77194.727	1	1	0	0	59.1082	57.6912	53.5581	5.89551	47.4966	28.7326	9.0311	93.3989	134.072	141.769	132.639	48.9279	117.178	93.6538	60.9712	197.264	213.216	35.315	203.232	76.705	29.555	36.119	64.479	20.459	8192	-8191	8192	8192	254	
77194.797	1	1	0	0	57.7149	51.4384	46.5748	3.00149	57.6683	34.6009	8.19566	83.5715	140.904	133.596	127.293	51.0817	128.433	92	64.5769	188.591	213.753	37.646	196.664	24.298	22.916	32.069	31.855	25.549	8192	-8191	8192	8192	254	
77194.844	1	1	0	0	55.9485	56.3625	56.3094	1.17937	41.0325	28.3915	7.95266	93.3667	136.933	142.851	130.913	46.4327	127.274	88.399	59.5673	200.952	213.181	39.117	209.973	80.531	31.445	32.395	16.626	26.654	8192	-8191	8192	8192	254	
77194.891	1	1	0	0	58.1139	58.1996	55.8554	1.99233	36.6229	33.6767	10.9248	88.0669	136.255	143.072	134.611	47.5096	115.385	95.7596	61.8894	197.337	208.047	33.351	213.917	62.984	33.048	14.396	31.093	14.973	8192	-8191	8192	8192	254	
77194.938	1	1	0	0	61.6486	58.8415	54.4457	5.18042	47.6971	25.1357	9.99397	93.6057	136.702	143.091	133.192	50.5721	119.159	91.6298	65.9375	189.202	216.141	42.950	216.936	161.439	26.997	22.390	28.788	28.093	8192	-8191	8192	8192	254	
77194.938	1	1	0	0	64.4023	59.4661	64.1277	5.60554	49.4938	29.4835	6.9024	90.9881	136.361	146	137.841	47	115.889	93.8029	59.4327	203.558	215.572	44.745	198.157	275.133	20.242	29.424	52.796	27.568	8192	-8191	8192	8192	254	
77194.984	1	1	0	0	55.4206	52.0083	58.5895	1.61637	52.3113	29.1983	9.59137	82.4884	138.827	144.245	129.981	52.2067	120.221	89.1394	62.5385	198.413	206.069	39.744	204.575	27.286	26.490	37.455	12.812	21.205	8192	-8191	8192	8192	254	
77195.062	1	1	0	0	55.4921	60.2534	54.7193	5.74033	39.0216	25.7497	1.97413	85.7797	135.788	134.87	136.38	46.4183	116.75	85.7308	63.7404	193.625	211.124	43.244	201.883	117.672	25.009	19.048	144.855	20.456	8192	-8191	8192	8192	254	
77195.109	1	1	0	0	55.2309	54.797	49.3197	1.12837	41.7395	23.726	6.75512	79.0138	130.716	137.962	129.322	47.3606	119.933	84.2356	61.9279	195.337	222.628	32.996	200.729	197.051	30.352	28.036	39.908	17.343	8192	-8191	8192	8192	254	
77195.156	1	1	0	0	53.3352	58.6256	55.5705	2.90749	48.2711	21.2195	5.64425	68.4648	130.332	137.76	131.817	45.9471	120.774	82.8365	61.5673	190.966	212.100	47.089	218.306	19.596	31.174	35.013	32.432	17.687	8192	-8191	8192	8192	254	
77195.203	1	1	0	0	53.4273	59.7928	49.992	2.09794	46.4694	28.2187	12.2462	90.1451	131.659	138.188	124.091	51.0481	114.471	91.524	53.4567	198.101	213.471	44.846	211.725	135.754	24.829	36.498	66.405	21.112	8192	-8191	8192	8192	254	
77195.250	1	1	0	0	59.4723	62.3766	51.8836	6.38653	57.877	29.3847	5.33232	94.9521	138.053	142.317	125.798	46.7596	123.553	97.6058	62.5625	196.264	211.611	48.869	222.458	194.211	32.839	22.316	45.796	28.053	8192	-8191	8192	8192	254	
77195.305	1	1	0	0	55.9464	54.4906	51.6515	1.16571	60.2083	32.3765	5.8863	81.7524	129.236	134.721	132.812	51.2163	126.76	89.4327	58.9279	190.553	207.919	29.563	201.930	2.062	22.241	22.289	66.148	25.167	8192	-8191	8192	8192	254	
77195.352	1	1	0	0	60.9724	55.3927	62.1579	5.48949	50.0094	39.7687	9.48116	81.8354	132.163	143.087	133.966	51.6106	118.803	94.5865	59.2933	191.793	206.469	39.459	203.794	161.119	33.510	19.851	34.009	29.569	8192	-8191	8192	8192	254	
77195.398	1	1	0	0	57.7826	55.0744	56.2651	2.50515	53.5089	23.2899	6.05702	91.0326	128.394	144.178	132.51	48.75	121.63	92.5721	60.8365	199.889	211.391	43.757	212.369	100.624	18.783	36.939	13.691	27.523	8192	-8191	8192	8192	254	
77195.469	1	1	0	0	55.6237	58.6794	57.074	1.16507	56.9512	27.9129	7.70119	73.0344	135.149	141.562	129.279	51.7644	130.274	91.024	65.8558	188.279	211.129	50.339	206.355	328.793	22.925	43.874	27.603	27.455	8192	-8191	8192	8192	254	
77195.516	1	1	0	0	61.709	55.5717	61.2006	1.80935	44.8523	30.3298	10.72	78.1289	134.216	147.361	133.885	47.9856	117.135	89.9327	60.524	198.582	204.425	32.799	210.382	292.404	26.514	24.116	27.889	20.194	8192	-8191	8192	8192	254	
77195.562	1	1	0	0	56.5467	61.5294	54.3121	3.16868	54.9713	27.506	6.3931	91.7712	138.736	141.154	132.745	50.1058	115.861	94.5288	63.4135	196.072	214.749	40.999	212.824	82.525	24.043	28.601	316.463	27.154	8192	-8191	8192	8192	254	
77195.609	1	1	0	0	67.1632	57.4883	56.1632	4.54151	45.4274	22.4021	10.4259	79.0497	135.625	145.202	132.745	48.0577	116.312	88.4952	68.7788	193.404	210.747	40.155	207.198	48.176	19.927	28.764	48.658	31.583	8192	-8191	8192	8192	254	
77195.656	1	1	0	0	56.2811	58.3355	57.2327	2.07388	51.6033	25.4726	9.39452	84.6778	133.168	144.356	132.966	49.7115	115.788	86.7452	63.3173	192.534	201.168	36.832	217.168	261.612	16.979	41.320	72.928	22.991	8192	-8191	8192	8192	254	
77195.711	1	1	0	0	58.1233	54.4359	50.8303	13.6401	58.9839	29.7757	7.35657	81.794	132.702	142.726	128	52.6875	120.697	96.2837	61.9952	192.697	210.885	44.478	205.379	342.327	32.685	29.443	37.866	28.838	8192	-8191	8192	8192	254	
77195.711	1	1	0	0	57.5174	60.6025	56.1896	2.61577	55.6809	22.4752	10.5678	91.1042	137.755	142.947	128.562	50.6683	118.923	90.899	62.0144	197.702	210.609	31.248	200.147	14.301	22.813	38.617	341.114	27.655	8192	-8191	8192	8192	254	
77195.758	1	1	0	0	60.6122	66.077	50.0152	4.12682	48.4047	26.0669	6.36534	92.2037	133.216	142.721	132.538	45.1731	114.812	94.2308	68.9952	199.269	206.004	40.647	214.463	96.876	31.697	23.149	89.335	26.444	8192	-8191	8192	8192	254	
77195.805	1	1	0	0	64.5135	56.4533	51.8607	2.68073	43.948	22.7927	7.62577	79.2684	142.678	134.173	131.712	45.2981	126.058	92.2163	69.0577	191.332	205.021	38.062	205.709	296.302	25.540	34.849	28.152	27.190	8192	-8191	8192	8192	254	
77195.852	1	1	0	0	62.5256	56.0292	51.9675	0.816944	53.1511	31.204	7.05233	84.7755	138.365	138.534	130.25	42.0048	123.019	88.4183	57.7115	194.188	215.951	33.269	209.355	240.680	28.785	17.322	43.128	27.054	8192	-8191	8192	8192	254	
77195.922	1	1	0	0	50.4172	61.8195	64.0076	6.06645	50.68	29.0894	10.952	85.3939	129.899	144.846	130.716	46.9471	115.389	89.899	60.3702	188.933	210.296	47.493	213.541	147.998	13.400	47.110	359.940	28.049	8192	-8191	8192	8192	254	
77195.969	1	1	0	0	55.1735	45.6573	47.7238	2.58055	54.8081	23.6605	9.22087	75.2578	136.207	138.971	130.808	46.3942	120.188	83.5385	64.7837	184.697	207.848	42.460	202.026	45.261	25.916	34.176	58.192	26.485	8192	-8191	8192	8192	254	
77196.023	1	1	0	0	71.8214	69.7302	50.26	7.86793	55.5673	27.4355	6.65264	75.173	144.236	150.207	131.221	51.5577	124.524	94.2885	65.875	192.654	205.989	44.089	209.522	350.564	22.960	34.017	43.239	23.887	8192	-8191	8192	8192	254	
77196.070	1	1	0	0	53.0794	57.407	53.8151	2.92327	53.4023	23.9916	14.0521	85.9427	136.553	148.923	122.663	47.4615	126.024	90.6635	57.1779	191.442	214.826	29.794	206.039	247.976	26.737	22.817	47.862	17.204	8192	-8191	8192	8192	254	
77196.117	1	1	0	0	56.4674	52.1193	55.2898	5.49694	51.9603	29.4429	14.087	76.217	132.62	142.274	130.986	47.9327	121.986	94.4808	65.7452	190.279	210.239	29.928	202.442	211.061	21.183	14.874	39.034	26.951	8192	-8191	8192	8192	254	
77196.164	1	1	0	0	63.7313	55.9117	49.5134	2.30105	54.0189	30.5845	9.58259	88.0743	133.356	142.851	121.572	52.2163	129.808	95.9663	58.5048	195.327	205.577	45.147	200.607	39.255	27.497	13.267	29.687	18.529	8192	-8191	8192	8192	254	
77196.234	1	1	8	0	57.5883	52.9836	53.6763	6.58418	51.4365	27.551	5.40506	76.7761	133.837	140.413	129.673	46.4327	124.457	81.7452	62.2596	191.096	213.843	35.536	211.560	194.484	32.098	36.546	3.745	23.056	8192	-8191	8192	8192	254	
77196.281	1	1	0	0	61.6825	49.8288	56.7776	6.65046	46.2003	26.0581	12.6108	71.9557	139.12	145.817	132.966	47.3702	122.649	94.5337	61.2596	180.832	213.710	32.165	204.402	153.861	32.345	28.128	54.045	18.882	8192	-8191	8192	8192	254	
77196.336	1	1	0	0	61.7326	58.6128	53.2241	2.72385	47.4366	21.9871	9.01996	84.7216	140.865	145.514	134.543	48.0865	118.904	89.976	66.6346	188.404	208.970	40.990	213.999	181.373	40.335	16.089	21.464	22.201	8192	-8191	8192	8192	254	
77196.383	1	1	0	0	51.4929	58.6412	51.2985	4.9532	44.9375	19.4054	12.8883	81.7289	137.712	142.019	124.793	47.6298	117.558	85.3365	64.2933	193.87	209.241	39.660	214.016	56.460	27.631	35.839	2.041	29.020	8192	-8191	8192	8192	254	
77196.430	1	1	0	0	60.7944	58.8804	60.2824	0.660554	47.8505	30.5319	5.97727	87.0921	136.284	139.048	133.269	46.875	120.312	90.5048	60.0433	196.788	211.698	47.071	203.551	31.755	19.274	27.298	43.820	20.198	8192	-8191	8192	8192	254	
77196.477	1	1	0	0	63.3484	59.2075	63.597	4.79398	49.1103	33.2305	9.82022	92.7186	138.385	142.971	134.942	50.5865	118.649	93.7548	64.3365	195.543	212.079	37.727	219.251	338.635	20.750	35.944	44.346	24.160	8192	-8191	8192	8192	254	
77196.477	1	1	0	0	58.501	55.1135	54.8123	6.53421	48.4844	22.9189	11.611	77.5047	138.438	144.764	131.462	48.7212	118.692	83.851	62.4712	190.798	210.074	45.951	210.071	319.170	26.964	33.275	22.990	29.696	8192	-8191	8192	8192	254	
77196.523	1	1	0	0	61.6224	58.8474	55.2541	6.06753	52.6895	36.1781	9.10584	81.7405	137.817	146.375	132.745	47.4087	121.962	99.1298	60.3365	191.933	211.561	34.311	207.843	291.004	27.844	41.343	50.092	21.729	8192	-8191	8192	8192	254	
77196.594	1	1	0	0	55.9651	62.0683	52.6787	2.64119	43.5231	22.6698	14.2361	85.1	132.029	147.168	133.404	52.5096	120.221	91.9519	61.9087	193.577	218.860	38.664	203.896	51.360	20.665	32.303	40.919	17.585	8192	-8191	8192	8192	254	
77196.648	1	1	0	0	55.0987	58.9447	62.5148	2.96489	50.3569	28.9291	13.5674	83.7656	135.822	144.562	132.798	49.3798	121.01	83.524	57.524	193.212	213.492	41.640	206.287	97.649	24.494	29.455	24.211	25.194	8192	-8191	8192	8192	254	
77196.695	1	1	0	0	68.6266	47.8629	55.2961	5.75498	58.6996	32.147	10.2168	81.7207	144.365	138.885	133.385	44.9471	129.154	87.6106	65.6683	200.356	214.098	42.595	202.676	233.046	29.332	30.433	11.099	21.697	8192	-8191	8192	8192	254	
77196.742	1	1	0	0	60.5452	48.7748	52.3884	3.39198	42.0008	26.6708	9.90301	90.8386	128.106	135.111	130.255	51.4519	121.538	88.625	60.0817	197.346	202.225	51.534	206.853	292.361	34.404	27.599	10.821	23.615	8192	-8191	8192	8192	254	
77196.789	1	1	0	0	61.952	54.2212	58.4319	4.12151	45.8653	31.2202	11.2713	79.4258	132.144	140.418	131.226	48.649	119.716	85.2452	58.9471	188.817	218.835	43.524	204.542	210.717	23.649	23.767	36.974	34.326	8192	-8191	8192	8192	254	
77196.836	1	1	0	0	67.6137	49.7332	45.1409	3.67866	52.545	24.4552	4.18632	79.1252	136.303	139.495	133.75	45.3798	123.5	92.1971	59.1106	183.361	208.895	39.140	207.877	256.549	31.833	30.695	311.899	27.656	8192	-8191	8192	8192	254	
77196.883	1	1	0	0	56.6731	53.7376	62.4556	9.59183	45.0759	26.6546	5.64793	82.2386	137.332	141.981	129.683	46.2163	120.173	95.2308	64.4567	187.803	213.758	33.706	216.561	69.539	23.144	27.828	58.311	19.968	8192	-8191	8192	8192	254	
77196.930	1	1	0	0	68.0831	64.2094	59.7598	2.5338	45.2741	37.5774	10.0447	88.93	137.611	145.529	133.76	47.0913	122.293	90.0673	61.9615	193.75	210.022	37.392	207.440	104.457	31.114	25.767	18.401	26.351	8192	-8191	8192	8192	254	
77197.008	1	1	0	0	64.875	53.7663	56.5098	4.58831	51.079	26.3888	11.1409	79.5278	137.457	139.736	131.356	48.0673	124.13	87.4663	61.5192	184.803	211.872	47.308	211.923	202.576	23.945	25.629	37.599	25.799	8192	-8191	8192	8192	254	
77197.055	1	1	0	0	64.4725	55.0154	55.0134	6.12713	57.1036	24.122	4.64418	86.6895	133.365	137.351	128.923	50.9567	132.591	91.8029	64.4423	189.712	211.035	36.380	214.270	180.152	24.716	30.809	343.936	29.507	8192	-8191	8192	8192	254	
77197.102	1	1	0	0	50.1623	52.5046	50.671	2.41193	50.7364	19.8933	7.74878	84.0102	134.245	136.923	127.139	50.0048	123.341	88.75	66.4279	189.413	210.734	39.913	194.618	296.473	30.369	6.731	46.249	30.241	8192	-8191	8192	8192	254	
77197.148	1	1	0	0	59.7865	57.8438	47.4768	3.40634	43.1819	33.5253	13.7369	82.0291	141.986	140.269	131.139	48.8702	123.745	97.0337	63.3125	191.495	215.340	46.128	215.093	53.734	19.828	15.425	32.164	24.808	8192	-8191	8192	8192	254	
77197.195	1	1	0	0	57.1522	52.1778	54.2655	8.31302	51.2152	24.0119	12.217	83.104	133.534	142.154	129.861	47.5577	125.635	94.1538	59.0144	194.49	215.259	41.723	206.036	39.614	18.468	39.818	26.145	26.564	8192	-8191	8192	8192	254	
77197.242	1	1	0	0	56.0852	58.6006	53.1854	3.40502	51.4652	31.8493	18.5528	81.7886	135.341	144.894	126.139	46.6538	123.577	91.7356	60.1298	198.562	216.448	35.653	206.032	176.569	24.440	24.657	30.970	30.723	8192	-8191	8192	8192	254	
#DATA ENDS
