BOXY.EXE: ISS Imagent Data Acquisition Program Version 0.82
Ascii Record File

#ACQ INFORMATION
1  Detector Channels 
8  External MUX Channels 
4  Auxiliary Analog Channels 
5000  Waveform (CCF) Frequency (Hz)
4  Waveforms Skipped 
26  Waveforms Averaged 
1  Cycles Averaged 
8  Acquisitions per Waveform 
1  Auxiliary Digital Channels 

#Data Update Rate
20.8333  Update Rate (Hz) 
FALSE -- Use Phase Reference
FALSE -- Use Continuous Phase Reference
FALSE -- Use Intensity Reference
FALSE -- Use Continuous Intensity Reference

#FILE INFORMATION
TRUE -- External MUX Channel results are PARSED.
FALSE -- AC DC and Phase are NOT grouped.
TRUE -- Companion Program Settings File CREATED.
FALSE -- AC data not excluded
FALSE -- DC data not excluded
FALSE -- Phase data not excluded
FALSE -- Auxillary Chn. data not excluded
Tab delimiters

#CALIBRATION STATE
FALSE -- Waveform Calibration Values NOT applied.

#WAVELENGTH DATA
Wavelength Index	Wavelength	Comp1 ExtCoef	Comp2 ExtCoef	Comp3 ExtCoef	Comp4 ExtCoef	BackGround	Weight	

1	6.600e+02	1.486e+00	3.844e+00	1.000e+00	1.000e+00	1.890e-02	1.000e+00	
2	6.900e+02	2.315e+00	1.792e+00	1.000e+00	1.000e+00	2.180e-02	1.000e+00	
3	7.500e+02	1.000e+00	1.000e+00	1.000e+00	1.000e+00	3.010e-03	1.000e+00	
4	7.750e+02	1.000e+00	1.000e+00	1.000e+00	1.000e+00	3.240e-03	1.000e+00	
5	7.850e+02	1.000e+00	1.000e+00	1.000e+00	1.000e+00	1.660e-02	1.000e+00	
6	8.000e+02	1.000e+00	1.000e+00	1.000e+00	1.000e+00	1.480e-02	1.000e+00	
7	8.250e+02	1.000e+00	1.000e+00	1.000e+00	1.000e+00	1.620e-02	1.000e+00	
8	8.300e+02	1.000e+00	1.000e+00	1.000e+00	1.000e+00	2.620e-02	1.000e+00	


#AUX CALIBRATION VALUES
Val Type	aux-1	aux-2	aux-3	aux-4	

Term	0.0000e+00	0.0000e+00	0.0000e+00	0.0000e+00	
Factor	1.0000e+00	1.0000e+00	1.0000e+00	1.0000e+00	


#WF CALIBRATION VALUES
A = Detector Channel
Val Type	A-AC1	A-AC2	A-AC3	A-AC4	A-AC5	A-AC6	A-AC7	A-AC8	A-DC1	A-DC2	A-DC3	A-DC4	A-DC5	A-DC6	A-DC7	A-DC8	A-Ph1	A-Ph2	A-Ph3	A-Ph4	A-Ph5	A-Ph6	A-Ph7	A-Ph8	

Term	0.00000e+00	0.00000e+00	0.00000e+00	0.00000e+00	0.00000e+00	0.00000e+00	0.00000e+00	0.00000e+00	0.00000e+00	0.00000e+00	0.00000e+00	0.00000e+00	0.00000e+00	0.00000e+00	0.00000e+00	0.00000e+00	-1.05892e+02	-9.99249e+01	-2.86485e+02	-2.62799e+02	-2.45797e+02	-2.48632e+02	-7.72400e+01	-7.86612e+01	
Factor	3.48934e-02	2.88771e-02	2.23541e-02	4.58344e-02	3.11822e-02	3.92311e-02	3.80806e-02	2.80088e-02	4.70955e+01	8.07534e+01	3.66973e+01	1.04434e+02	6.45565e+01	3.94082e+01	9.13796e+01	5.49806e+01	X	X	X	X	X	X	X	X	



#DISTANCE SETTINGS
A = Detector Channel
A-1	A-2	A-3	A-4	A-5	A-6	A-7	A-8	

1.5000e+00	1.5000e+00	1.5000e+00	1.5000e+00	1.5000e+00	1.5000e+00	1.5000e+00	1.5000e+00	



#ADDITIONAL SIGNAL INFORMATION
A = Detector Channel
Info. Type	A-1	A-2	A-3	A-4	A-5	A-6	A-7	A-8	

cal. block. ind.	1	1	1	1	1	1	1	1	
wavelength ind.	0	1	2	3	4	5	6	7	
weight	1.0000e+00	1.0000e+00	1.0000e+00	1.0000e+00	1.0000e+00	1.0000e+00	1.0000e+00	1.0000e+00	


#CALIBRATION BLOCK OPTICAL PROPS
Calib. Block Num.	WaveLen Index	Absorption	Scattering	

1	1	1.080e-01	9.000e+00	
1	2	1.300e-01	1.070e+01	
1	3	1.130e-01	9.400e+00	
1	4	1.210e-01	1.000e+01	
1	5	1.080e-01	9.000e+00	
1	6	1.300e-01	1.070e+01	
1	7	1.150e-01	9.600e+00	
1	8	1.330e-01	1.090e+01	

Calib. Block Num.	WaveLen Index	Absorption	Scattering	

2	1	1.120e-01	4.400e+00	
2	2	1.200e-01	5.700e+00	
2	3	1.140e-01	4.600e+00	
2	4	1.160e-01	5.100e+00	
2	5	1.120e-01	4.400e+00	
2	6	1.200e-01	5.700e+00	
2	7	1.150e-01	4.800e+00	
2	8	1.210e-01	6.000e+00	

Calib. Block Num.	WaveLen Index	Absorption	Scattering	

3	1	9.300e-02	8.700e+00	
3	2	1.010e-01	1.040e+01	
3	3	9.500e-02	9.000e+00	
3	4	9.700e-02	9.600e+00	
3	5	9.300e-02	8.700e+00	
3	6	1.010e-01	1.040e+01	
3	7	9.600e-02	9.300e+00	
3	8	1.030e-01	1.080e+01	

Calib. Block Num.	WaveLen Index	Absorption	Scattering	

4	1	1.000e-01	1.000e+01	
4	2	1.000e-01	1.000e+01	
4	3	1.000e-01	1.000e+01	
4	4	1.000e-01	1.000e+01	
4	5	1.000e-01	1.000e+01	
4	6	1.000e-01	1.000e+01	
4	7	1.000e-01	1.000e+01	
4	8	1.000e-01	1.000e+01	



#DATA BEGINS
time	group	step	mark	flag	A-AC1	A-AC2	A-AC3	A-AC4	A-AC5	A-AC6	A-AC7	A-AC8	A-DC1	A-DC2	A-DC3	A-DC4	A-DC5	A-DC6	A-DC7	A-DC8	A-Ph1	A-Ph2	A-Ph3	A-Ph4	A-Ph5	A-Ph6	A-Ph7	A-Ph8	aux-1	aux-2	aux-3	aux-4	digaux	

77731.375	1	1	0	768	3566.41	4.4459	3392.72	1609.8	510.012	4875.38	5.60179	3.3564	5367.1	49.0481	4939.19	2527.58	887.692	8515.79	45.8846	40.8029	153.626	349.671	327.651	331.323	332.069	327.948	99.737	277.158	8192	-8191	8192	8192	254	
77731.422	1	1	0	0	4519.2	4687.42	4112.83	4.09967	3383.52	1616.33	501.458	5013.24	6629.01	7564.2	6172.07	50.8798	4901.42	2525.62	885	8615.76	152.210	340.888	151.235	307.975	327.537	331.157	335.491	327.439	8192	-8191	8192	8192	254	
77731.492	1	1	0	0	4533.2	4631.76	4111.78	7.35081	3395.99	1648.02	524.372	4892.26	6649.71	7515.21	6279.04	50.7837	4913.7	2559.73	905.332	8476.27	152.264	340.704	151.113	318.363	328.138	331.150	335.498	328.023	8192	-8191	8192	8192	254	
77731.539	1	1	0	0	4456.64	4732.66	4202.78	6.18876	3354.86	1603.32	512.561	4917.33	6638.3	7557.11	6352.26	52	4878.17	2519.13	894.587	8498.24	152.622	340.190	151.369	350.282	328.026	332.013	336.148	328.398	8192	-8191	8192	8192	254	
77731.586	1	1	0	0	4513.87	4623.24	4199.81	9.24516	3383.92	1598.48	520.817	4978.28	6622.49	7508.85	6313.88	51.2452	4910.1	2523.94	898.962	8526.43	152.862	340.127	151.205	348.973	327.789	330.844	334.111	327.357	8192	-8191	8192	8192	254	
77731.633	1	1	0	0	4490.59	4664.98	4136.68	5.55727	3468.79	1587.74	522.449	4929.86	6640.5	7533.82	6306.09	49.8942	4944	2519.02	915.303	8566.27	151.166	340.814	151.463	294.188	327.762	330.451	335.835	327.711	8192	-8191	8192	8192	254	
77731.688	1	1	0	0	4525.18	4713.63	4168.28	12.0228	3456.21	1629.5	502.068	4939.5	6618.47	7504.2	6348.13	51.9087	4941.04	2511.71	891.25	8526.38	152.257	341.007	151.437	331.133	326.917	330.132	332.957	328.391	8192	-8191	8192	8192	254	
77731.734	1	1	0	0	4449.09	4655.37	4251.72	6.19246	3474.29	1586.52	519.604	4914.27	6570.31	7492.35	6367.86	48.4038	4945.36	2541.29	899.51	8568.48	152.216	340.145	151.726	6.401	327.469	331.766	334.158	327.694	8192	-8191	8192	8192	254	
77731.781	1	1	0	0	4519.43	4709.78	4240.38	6.1664	3416.37	1544.16	510.953	4892.77	6625.41	7550.74	6386.25	53.0673	4930.43	2484.5	896.404	8513.12	152.231	340.265	151.465	300.756	327.071	330.321	332.864	328.358	8192	-8191	8192	8192	254	
77731.828	1	1	0	0	4510.02	4682.89	4192.17	8.85044	3419.67	1571.65	492.157	4935.25	6631.43	7494.95	6369.4	51.2115	4927.89	2495.99	895.101	8558.38	152.184	340.408	151.685	322.896	327.581	331.733	332.420	327.828	8192	-8191	8192	8192	254	
77731.875	1	1	0	0	4506.5	4595.02	4155.16	11.2383	3375.07	1617.35	506.756	5044.32	6637.37	7452.24	6382.49	49.1827	4905.26	2533.33	907.659	8598.05	151.549	340.121	151.308	328.788	327.442	330.351	335.928	328.430	8192	-8191	8192	8192	254	
77731.922	1	1	0	0	4455.35	4569.26	4202.53	4.73962	3452.35	1611.19	516.273	4835.33	6599.8	7452.06	6387.31	53.3798	4949.96	2525.74	909.957	8529.08	152.238	340.589	151.242	298.020	327.295	331.472	333.950	328.127	8192	-8191	8192	8192	254	
77731.992	1	1	1	0	4490.57	4668.07	4080.97	7.11645	3404.37	1561.68	529.198	4860.91	6571.59	7531.12	6315.25	53.2067	4892.77	2526.79	898.438	8472.07	152.198	340.413	152.147	329.476	327.392	332.423	334.116	328.027	8192	-8191	8192	8192	254	
77732.047	1	1	0	0	4509.44	4685.04	4252.21	7.5364	3348.66	1590.21	503.616	4987.99	6641.08	7526.51	6405.82	49.1779	4886.83	2495.94	901.216	8574.6	151.907	341.016	150.592	330.456	327.744	329.490	332.817	328.190	8192	-8191	8192	8192	254	
77732.094	1	1	0	0	4495.24	4721.98	4200.56	8.21045	3462.63	1604.44	511.923	4939.29	6635.38	7536.75	6372.72	50.8798	4939.04	2523.55	904.625	8568.81	151.629	340.436	150.486	13.793	327.335	330.611	334.209	327.824	8192	-8191	8192	8192	254	
77732.141	1	1	0	0	4502.02	4679.19	4179.37	11.5007	3337.95	1593.08	522.099	4966.99	6632.12	7519.18	6368.11	58.1971	4892.81	2523.71	902.091	8578.34	152.681	340.218	150.346	349.809	327.207	331.368	332.599	327.520	8192	-8191	8192	8192	254	
77732.141	1	1	0	0	4492.42	4662.22	4257.51	6.54166	3351.13	1585.09	528.351	4949.26	6609.06	7519.58	6428.63	48.0144	4899.81	2511.1	907.25	8532.93	151.854	340.108	151.419	356.369	327.641	330.000	338.084	327.725	8192	-8191	8192	8192	254	
77732.188	1	1	0	0	4463.51	4656.09	4125.76	0.677966	3386.27	1577.7	504.993	4880.27	6596.44	7521.54	6353.11	48.4808	4881	2516.64	889.596	8513.43	152.280	340.262	150.368	331.969	328.192	330.599	333.805	327.367	8192	-8191	8192	8192	254	
77732.234	1	1	0	0	4473.4	4564.21	4196.41	10.2816	3433.9	1569.7	490.366	4935.27	6600.76	7440.56	6356.58	48.2885	4953.92	2505.9	892.88	8510.15	153.151	339.873	150.929	30.949	327.235	328.692	336.023	326.991	8192	-8191	8192	8192	254	
77732.281	1	1	0	0	4502.52	4601.81	4160.18	8.68058	3371.72	1605.63	508.605	4923.29	6632.88	7465.33	6397.27	47.5817	4921.33	2510.2	905.663	8509.5	152.801	340.087	151.204	338.107	327.043	330.241	334.654	327.852	8192	-8191	8192	8192	254	
77732.359	1	1	0	0	4508.75	4650.5	4259.93	7.90121	3363.42	1611.1	498.066	4899.41	6605.28	7487.98	6406.23	52.351	4919.86	2564.11	881.322	8506.54	152.518	340.295	151.883	310.391	327.720	329.606	335.327	327.533	8192	-8191	8192	8192	254	
77732.406	1	1	0	0	4426.27	4666.99	4267.24	10.2543	3420.43	1616.91	523.417	4968.8	6593.65	7503.54	6438.3	51.6346	4960.32	2533.83	903.25	8556.97	152.577	339.973	151.143	321.370	327.082	329.906	333.661	327.159	8192	-8191	8192	8192	254	
77732.453	1	1	0	0	4566.15	4636.06	4205.96	5.20898	3399.96	1597.96	513.756	4971.53	6641.07	7443.79	6408.77	52.7067	4935.86	2526.16	893.37	8554.78	152.585	340.894	150.875	347.619	326.906	331.554	335.522	327.701	8192	-8191	8192	8192	254	
77732.500	1	1	0	0	4533.36	4583.44	4243.17	7.09563	3474	1586.54	512.862	4905.59	6639.98	7486.8	6402.02	53.8894	4934.83	2520.38	906.135	8522.49	152.384	340.790	151.952	351.347	327.458	330.732	334.292	327.754	8192	-8191	8192	8192	254	
77732.547	1	1	0	0	4415.09	4660.51	4250.49	4.86957	3396.87	1642.75	496.809	4929.76	6533.75	7536.14	6401.26	47.8894	4927.93	2553.05	894.212	8539.97	152.810	340.853	151.236	18.369	327.638	332.088	332.736	327.643	8192	-8191	8192	8192	254	
77732.594	1	1	0	0	4493.13	4627.69	4220.38	7.75396	3413.9	1571.62	523.649	4946.43	6623.8	7484.46	6426.83	51.5962	4921.23	2487.92	907.938	8559.69	152.390	340.705	151.497	346.285	327.227	329.593	335.283	327.736	8192	-8191	8192	8192	254	
77732.641	1	1	0	0	4559.96	4648.79	4277.86	8.5584	3393.5	1600.76	514.394	4907.02	6643.17	7500.79	6448.3	52.7308	4914.17	2527.47	886.918	8501.5	152.331	339.792	151.489	321.929	327.506	331.628	333.358	327.966	8192	-8191	8192	8192	254	
77732.695	1	1	0	0	4459.17	4689.14	4238.6	8.60071	3376.93	1609.98	492.971	4910.8	6608.71	7533.9	6402.11	50.2596	4888.81	2530.29	886.293	8573.21	152.015	340.499	151.433	355.520	327.799	331.359	336.082	328.403	8192	-8191	8192	8192	254	
77732.766	1	1	0	0	4559.25	4659	4223.92	6.8691	3410.2	1614.58	501.749	4907.55	6627.92	7504.31	6445.24	53.5144	4923.37	2549.95	884.817	8540.24	152.405	340.958	151.619	329.608	327.418	331.409	334.385	328.241	8192	-8191	8192	8192	254	
77732.812	1	1	0	0	4555.84	4650.08	4157.26	10.1009	3425.48	1609.27	513.341	4974.76	6640.02	7521.76	6380.46	55.024	4939.3	2552.28	897.303	8600.33	152.347	340.416	151.222	357.098	326.631	330.720	333.247	327.266	8192	-8191	8192	8192	254	
77732.859	1	1	0	0	4537.39	4619.85	4280.41	7.17463	3447.24	1599.29	507.273	4996.97	6662.05	7524.15	6449.2	58.6058	4968.54	2536.25	904.779	8596.79	153.010	340.460	152.063	347.939	327.681	332.036	333.757	327.258	8192	-8191	8192	8192	254	
77732.906	1	1	0	0	4564.07	4748.21	4241.73	6.52282	3433.78	1587.7	496.855	5008.38	6666.57	7633.32	6450.5	56.0673	4939.69	2534.85	901.745	8634.93	152.710	340.885	151.519	15.272	326.900	331.596	335.623	327.784	8192	-8191	8192	8192	254	
77732.906	1	1	0	0	4486.4	4748.74	4282.7	2.13178	3454.25	1605.19	537.288	4982.76	6657.53	7572.73	6487.12	55.7404	4995.39	2548.79	930.904	8625.35	152.604	340.111	151.455	255.129	327.467	331.097	334.185	328.320	8192	-8191	8192	8192	254	
77732.953	1	1	0	0	4569.5	4735.78	4233.92	10.9499	3450.02	1612.54	494.815	5083.32	6720.72	7613.48	6497.6	54.7308	4957.3	2556.55	903.091	8701.1	151.953	341.107	151.215	340.780	328.737	331.145	336.120	327.429	8192	-8191	8192	8192	254	
77733.031	1	1	0	0	4510.5	4701.55	4231.03	13.178	3415.72	1563.31	526.749	5026.75	6643.53	7594.01	6489.94	55.2885	4977.23	2538.74	924.154	8693.01	152.191	340.436	151.930	19.580	327.614	331.161	335.993	328.151	8192	-8191	8192	8192	254	
77733.078	1	1	0	0	4518.18	4672.31	4304.6	7.34863	3455.54	1600.47	544.963	4996.32	6677.91	7596.5	6510.41	56.4712	5003.57	2561.51	931.803	8677.11	152.644	340.357	151.951	12.532	327.260	331.711	334.302	327.841	8192	-8191	8192	8192	254	
77733.125	1	1	0	0	4555.84	4753.95	4240.11	12.6674	3409.76	1625.68	523.58	5035.83	6696.42	7589.74	6499.47	58.0865	4971.86	2564.12	918.178	8690.74	152.574	340.093	151.440	339.636	327.637	331.795	331.474	328.586	8192	-8191	8192	8192	254	
77733.172	1	1	0	0	4509.9	4725.13	4239.22	9.31623	3464.78	1594.45	514.758	5062.03	6688.74	7579.08	6481.24	55.9087	4979.3	2522.61	910.438	8654.56	152.308	340.669	151.524	302.238	327.222	330.891	334.753	328.032	8192	-8191	8192	8192	254	
77733.219	1	1	0	0	4526.53	4735.45	4285.2	12.9458	3470.05	1632.77	509.102	4965.5	6675.93	7649.01	6469.45	55.4904	5006.14	2579.44	901.88	8642.19	152.143	341.060	151.146	317.583	327.098	332.310	335.508	327.091	8192	-8191	8192	8192	254	
77733.266	1	1	0	0	4609.59	4668.22	4299.27	9.84264	3450.9	1592.69	522.914	5000.14	6721.47	7619.13	6494.5	54.8077	4982.76	2531.94	920.558	8707.73	152.394	340.678	151.819	20.004	327.061	331.482	333.794	327.905	8192	-8191	8192	8192	254	
77733.312	1	1	0	0	4490.26	4755.69	4215.83	0.711221	3454.63	1573.32	528.645	4956.76	6690.71	7611.05	6440.08	55.8846	4996.07	2535.28	920.452	8656.12	152.346	340.738	150.755	104.778	328.087	331.650	335.644	327.451	8192	-8191	8192	8192	254	
77733.367	1	1	0	0	4611.7	4730.42	4268.51	4.5121	3465.27	1655.42	513.951	5034.91	6752.78	7636.04	6490.87	54.5048	5005.1	2577.59	924.495	8713.87	152.214	340.841	150.448	305.595	327.976	330.792	331.215	327.477	8192	-8191	8192	8192	254	
77733.438	1	1	0	0	4551.86	4724	4268.94	3.33327	3355.17	1623.71	521.015	5007.72	6721.36	7582.19	6492.88	56.8654	4921.43	2552.7	922.889	8670.74	152.002	340.012	150.960	54.427	327.372	331.091	335.093	328.136	8192	-8191	8192	8192	254	
77733.484	1	1	0	0	4506.98	4716.1	4256.01	2.94696	3480.11	1589.93	518.78	5060.49	6690.5	7586.44	6482.89	54.6058	5018.96	2551.71	927.486	8698.56	152.228	340.092	151.006	358.813	327.982	331.415	335.184	328.101	8192	-8191	8192	8192	254	
77733.531	1	1	0	0	4535.64	4718.01	4317.21	5.38284	3481.59	1596.55	509.713	4999.7	6738.74	7605.06	6548.31	60.0481	5030.56	2563.88	918.053	8657.17	151.931	340.432	151.137	1.539	326.395	331.853	335.303	328.084	8192	-8191	8192	8192	254	
77733.578	1	1	0	0	4542.86	4749.56	4241.2	14.8456	3459.25	1621.7	509.848	4984.59	6708.48	7650.13	6460.21	57.4567	5003.59	2576.48	924.312	8639.58	151.882	340.831	151.297	4.199	327.858	332.064	333.072	327.773	8192	-8191	8192	8192	254	
77733.625	1	1	0	0	4586.99	4667.48	4238.1	7.2103	3476.51	1617.3	548.075	4994.64	6746.55	7616.8	6506.95	56.2115	5055.71	2544.4	940.332	8639.11	151.693	340.257	151.574	320.880	328.074	330.677	337.262	328.266	8192	-8191	8192	8192	254	
77733.680	1	1	0	0	4462.39	4772.37	4253.59	11.6622	3492.63	1581.62	504.812	5015.4	6631.25	7652.19	6535.59	59.8317	4994.52	2562.74	903.183	8719.28	151.453	340.393	151.157	16.314	327.013	330.764	333.579	328.299	8192	-8191	8192	8192	254	
77733.680	1	1	0	0	4616.89	4724.11	4258.43	11.1855	3432.18	1583.17	556.98	4989.1	6727.51	7548.23	6447.95	63.8413	4994.38	2532.04	933.938	8653.35	152.242	340.380	151.251	6.002	327.852	332.158	334.886	327.973	8192	-8191	8192	8192	254	
77733.727	1	1	0	0	4583.54	4731.44	4277.43	6.04826	3449.86	1641.38	521.286	5003.22	6708.82	7618.32	6489.97	56.1827	4997.08	2573.83	928.337	8676.72	151.589	339.936	151.049	296.704	327.460	331.685	332.351	328.110	8192	-8191	8192	8192	254	
77733.773	1	1	0	0	4570.76	4751.12	4238.32	2.15942	3467	1603.76	519.293	5009.61	6750.45	7665.08	6517.82	53.8894	5005.98	2555.38	925.981	8683.12	152.406	339.963	151.868	91.884	327.409	332.139	334.519	327.940	8192	-8191	8192	8192	254	
77733.820	1	1	0	0	4432.64	4692.74	4230.4	6.83908	3405.27	1663.02	551.004	4962.54	6650.16	7605.75	6466.01	56.899	4955.17	2599.32	924.495	8700.88	151.981	340.133	151.508	353.922	327.042	330.883	337.304	328.195	8192	-8191	8192	8192	254	
77733.891	1	1	0	0	4523.63	4647.61	4273.82	15.5112	3473.41	1597.17	521.869	4987.45	6681.24	7562.79	6524.82	60.2404	5009.14	2558.79	921.212	8661.31	152.784	340.196	151.371	308.840	326.871	329.642	335.904	328.119	8192	-8191	8192	8192	254	
77733.938	1	1	0	0	4566.63	4726.52	4210.6	4.77048	3445.67	1638.14	534.782	4971.61	6729.16	7599.64	6477.46	55.7452	4971.62	2572.82	927.529	8682.55	152.781	340.641	151.343	3.190	327.451	331.861	335.445	327.984	8192	-8191	8192	8192	254	
77733.984	1	1	0	0	4597	4675.88	4220.87	9.16713	3386.81	1651.94	528.768	4936.95	6707.61	7597.14	6486.08	64.0144	4948.21	2592.07	928.529	8671.55	152.652	340.133	151.486	10.907	328.313	330.155	333.811	327.848	8192	-8191	8192	8192	254	
77734.039	1	1	0	0	4601.06	4716.08	4270.44	2.95642	3444.63	1614.93	534.701	4997.66	6703.33	7632.98	6520.06	68.3462	4979.75	2589.06	945.601	8669.25	152.985	340.701	151.535	312.795	328.089	331.649	335.333	328.178	8192	-8191	8192	8192	254	
77734.086	1	1	0	0	4563.66	4836.77	4339.17	1.09162	3432.3	1637.23	538.722	4935.92	6702.27	7702.68	6544.67	62.8654	5002.51	2570.55	924.938	8635.59	152.718	340.959	151.177	94.259	328.963	330.639	333.706	327.739	8192	-8191	8192	8192	254	
77734.133	1	1	0	0	4556.11	4636.25	4279.86	7.09324	3430.47	1630.52	501.259	5007.72	6707.39	7562.65	6488.23	64.0721	4985.97	2584.62	918.812	8639.54	152.353	340.761	151.436	321.094	327.994	331.302	332.952	328.003	8192	-8191	8192	8192	254	
77734.180	1	1	0	0	4524.72	4681.11	4254.19	8.87007	3441.76	1605.99	525.837	5049	6667.5	7624.1	6464.31	60.6106	4994.11	2544.43	919.476	8703.94	151.843	341.412	151.115	316.532	327.228	330.807	331.996	328.297	8192	-8191	8192	8192	254	
77734.227	1	1	0	0	4502.77	4713.6	4202.36	5.89621	3429.98	1600.35	526.646	5004.4	6689.8	7613.72	6481.5	57.101	4972.3	2551.67	929.736	8690.67	152.243	340.420	150.985	354.140	327.736	331.350	333.036	327.505	8192	-8191	8192	8192	254	
77734.297	1	1	0	0	4543.5	4743.28	4236.71	10.7173	3417.17	1643.75	513.728	5012	6717.47	7654.95	6487.87	66.9231	5009.43	2584.69	923.034	8700.6	152.483	340.575	150.870	323.365	328.343	330.604	336.586	328.608	8192	-8191	8192	8192	254	
77734.344	1	1	0	0	4458.31	4725.4	4263.54	9.61806	3437.37	1606.56	525.339	4978.71	6676.88	7681.89	6492.77	65.4135	4964.28	2573.89	948.183	8633.21	152.860	340.520	151.203	10.531	326.929	332.565	333.241	327.909	8192	-8191	8192	8192	254	
77734.398	1	1	0	0	4485.14	4726.96	4205.28	7.3912	3499.24	1586.79	508.688	4984.87	6687.2	7630.76	6477.79	69.7981	5059.15	2550.27	918.207	8639.47	152.902	340.530	151.503	326.044	327.285	332.027	333.312	328.274	8192	-8191	8192	8192	254	
77734.445	1	1	0	0	4505.46	4665.24	4302.51	7.53233	3458.36	1615.67	527.015	5035.54	6721.26	7591.39	6524.62	63.5288	5028.97	2555.98	933.173	8710.46	153.221	340.866	151.171	340.577	328.267	331.380	335.056	327.959	8192	-8191	8192	8192	254	
77734.445	1	1	0	0	4549	4802.85	4322.54	7.01227	3459.58	1596.94	551.378	5017.82	6697.68	7652.48	6528.62	68.8269	5026.85	2545.28	947.356	8693.51	152.068	341.166	150.910	339.154	328.009	331.887	334.907	328.283	8192	-8191	8192	8192	254	
77734.492	1	1	0	0	4551.01	4724.86	4305.4	12.1849	3385.51	1613.37	531.282	5011.4	6721.94	7588.3	6539.38	63.5288	4982.02	2576.35	942.726	8689.89	151.551	339.783	150.804	326.398	327.685	329.907	334.640	327.749	8192	-8191	8192	8192	254	
77734.562	1	1	0	0	4629.76	4688.57	4317.54	4.12054	3508.56	1611.64	521.852	4998.16	6703.42	7586.45	6547.23	68.4087	5044.96	2563.24	930.221	8733.27	152.423	340.377	151.861	223.371	327.797	331.804	334.986	327.408	8192	-8191	8192	8192	254	
77734.609	1	1	0	0	4581.1	4659.95	4328.51	2.74592	3486.28	1587.13	533.488	5021.84	6741.42	7591.86	6537.36	65.0192	5030.16	2568.95	944.274	8689.43	152.661	340.716	150.892	13.717	327.311	331.835	335.956	327.492	8192	-8191	8192	8192	254	
77734.656	1	1	0	0	4565.32	4697.51	4247.28	3.99831	3424.89	1638.48	524.205	5027.05	6714.93	7622.87	6514.47	64.75	4985.33	2594.54	930.236	8695.19	152.215	339.693	151.501	249.233	327.788	331.973	334.786	327.504	8192	-8191	8192	8192	254	
77734.703	1	1	0	0	4469.81	4687.53	4257.28	7.46049	3481.74	1644.96	529.756	5054.83	6698.13	7611	6494.54	65.2692	5029.55	2579.31	924.245	8691.71	152.057	340.967	150.749	25.000	328.027	331.885	337.493	327.432	8192	-8191	8192	8192	254	
77734.758	1	1	0	0	4594.57	4703.71	4291.38	10.6061	3392.49	1596.8	544.161	4983.03	6751.16	7638.79	6476.12	67.0817	4963.93	2568.46	919.808	8685.25	152.656	340.544	151.286	18.200	327.284	331.068	335.820	327.622	8192	-8191	8192	8192	254	
77734.805	1	1	0	0	4433.3	4650.97	4259.29	6.5835	3414.02	1641.26	498.362	4977.68	6641.9	7608.94	6529.4	61.4519	4960.38	2563.18	912.346	8631.99	152.422	340.200	151.067	52.944	327.098	332.630	333.874	328.023	8192	-8191	8192	8192	254	
77734.852	1	1	0	0	4537.13	4625.03	4260.32	3.52859	3433.33	1601.44	525.411	5011.64	6708.48	7555.16	6475.79	65.5865	4990.58	2561.63	943.288	8664.3	152.979	339.973	151.802	6.503	327.650	331.858	332.018	327.490	8192	-8191	8192	8192	254	
77734.898	1	1	0	0	4535.67	4708.29	4260.38	1.09954	3552.54	1607.8	510.106	5048.22	6697.88	7621.14	6516.24	62.4087	5084.98	2588.18	919.562	8689.39	152.140	340.380	150.756	247.029	327.188	331.673	332.948	328.272	8192	-8191	8192	8192	254	
77734.945	1	1	0	0	4502.27	4693.58	4268.17	13.1422	3415.66	1603.09	538.566	5007.98	6693.06	7595.39	6475.02	66.0433	4995.84	2577.12	915.861	8704.7	152.159	340.917	151.070	5.356	327.794	332.350	333.447	328.017	8192	-8191	8192	8192	254	
77734.992	1	1	0	0	4613.81	4724.55	4363.04	2.19594	3414.47	1641.36	516.727	4948.67	6731.96	7617.43	6562.03	67.6731	5004.41	2585.97	944.663	8687.31	152.392	340.334	151.686	357.464	328.378	331.160	333.663	328.006	8192	-8191	8192	8192	254	
77735.070	1	1	0	0	4541.85	4676.32	4258.87	2.88849	3458.95	1605.42	500.652	4966.38	6711.62	7562.16	6475.12	62.3798	5017.23	2565.47	919.683	8673.51	152.647	340.321	151.016	269.862	327.731	331.021	334.456	327.879	8192	-8191	8192	8192	254	
77735.117	1	1	0	0	4544.75	4717.43	4302.88	3.45877	3468.09	1587.48	530.452	5019.71	6714.78	7616.48	6524.54	62.8077	4999.12	2529.92	934.173	8700.39	152.221	340.260	150.999	358.214	327.925	330.742	336.897	327.350	8192	-8191	8192	8192	254	
77735.164	1	1	0	0	4575.97	4746.8	4310.04	5.85252	3364.71	1611.22	519.641	5000	6778.08	7626.65	6494.17	60.8702	4933.99	2562.74	921.173	8667.27	152.366	340.529	150.570	349.156	327.504	331.618	333.295	326.915	8192	-8191	8192	8192	254	
77735.211	1	1	0	0	4529.97	4669.7	4234.27	7.25634	3451.89	1646.94	509.639	5006.79	6706.02	7567.49	6470.77	65.5721	4983.93	2593.77	907.048	8650.44	151.968	340.121	151.094	310.999	327.700	330.996	336.630	327.841	8192	-8191	8192	8192	254	
77735.211	1	1	0	0	4513.62	4674.4	4240.07	6.09242	3419.88	1625.48	542.377	5053.44	6673.34	7621.76	6482.75	61.3125	4995.95	2569.42	929.476	8724.01	152.287	339.848	151.648	280.941	326.588	331.465	333.428	327.770	8192	-8191	8192	8192	254	
77735.258	1	1	0	0	4557.02	4692.11	4248.55	6.43449	3383.92	1610.89	512.903	5019.27	6685.16	7555.07	6484.3	68.0048	4988.97	2565.13	914.269	8628.61	152.687	340.688	151.517	12.098	328.328	331.639	334.704	327.184	8192	-8191	8192	8192	254	
77735.328	1	1	0	0	4560.38	4631.1	4274.61	5.13465	3398.81	1615.88	517.68	5051.31	6683.93	7578.45	6505.46	63.5433	4981.45	2581.59	927.74	8688.45	151.673	341.083	151.124	357.159	327.814	331.949	333.924	328.502	8192	-8191	8192	8192	254	
77735.383	1	1	0	0	4537.45	4768.5	4178.43	8.3262	3488.45	1611.84	514.505	4998.25	6703.03	7639.17	6403.83	64.8221	5037	2579.31	931.856	8693.36	151.986	340.376	151.557	19.403	327.172	331.931	334.878	327.618	8192	-8191	8192	8192	254	
77735.430	1	1	0	0	4492.13	4672.3	4232.7	7.10005	3475.26	1567.57	519.176	5041.7	6668.68	7643.03	6473.82	79.3269	5030.01	2558.54	942.365	8672.52	152.773	340.321	151.360	1.832	328.006	332.461	334.294	327.776	8192	-8191	8192	8192	254	
77735.477	1	1	0	0	4606.27	4726.23	4282.85	5.27091	3396.3	1644.29	506.203	4954.72	6730.8	7631.11	6537.41	84.3173	4979.87	2622.72	940.519	8638.69	152.959	341.692	151.177	331.585	327.272	330.911	335.023	327.328	8192	-8191	8192	8192	254	
77735.523	1	1	0	0	4524.6	4677.66	4283.63	8.63758	3430.27	1607.93	560.379	5022.2	6714.21	7576.77	6529.56	86.6538	4977.55	2567.65	963.971	8693.33	152.196	341.075	151.424	319.603	328.469	331.815	333.274	328.748	8192	-8191	8192	8192	254	
77735.570	1	1	0	0	4510.97	4720.41	4285.74	4.79588	3398.92	1595.23	517.345	4906.27	6711.63	7674.58	6546.03	79.4808	4989.71	2552.5	937.514	8585.25	152.720	341.162	151.261	78.002	328.314	330.221	332.918	328.171	8192	-8191	8192	8192	254	
77735.617	1	1	2	0	4540.13	4727.37	4196.24	9.2971	3422.02	1645.03	515.806	5000.65	6714.57	7610.77	6450.15	75.8317	4985.31	2594.01	950.077	8705.7	153.275	340.180	150.252	324.205	328.048	331.291	335.060	328.414	8192	-8191	8192	8192	254	
77735.672	1	1	0	0	4516.19	4800.33	4230.35	8.32588	3501.92	1620.45	513.252	5040.99	6665.43	7654.15	6482.41	73.4519	5047.97	2583.26	934.567	8736.57	151.958	340.068	152.390	6.231	326.549	331.649	334.555	327.567	8192	-8191	8192	8192	254	
77735.742	1	1	0	0	4471.99	4716.38	4306.87	9.03191	3511.22	1652.97	507.425	4969.39	6703.8	7645.85	6512.53	69.2885	5071.06	2586.37	948.274	8664.37	152.862	340.283	151.194	28.440	328.641	330.639	332.159	327.682	8192	-8191	8192	8192	254	
77735.789	1	1	0	0	4512.07	4634.36	4287.24	10.7563	3420.56	1626.54	524.396	4958.06	6668.22	7581.46	6519.48	74.9183	5019.63	2584.95	934.865	8682.25	152.848	340.647	151.823	340.744	328.240	331.117	335.826	327.896	8192	-8191	8192	8192	254	
77735.836	1	1	0	0	4510.72	4672.02	4225.58	2.89992	3444.09	1624.13	527.863	4973.76	6734.64	7615.74	6487.06	82.8606	5011.15	2589.96	942.933	8674.09	152.541	340.984	151.343	308.553	327.780	330.651	335.101	327.824	8192	-8191	8192	8192	254	
77735.883	1	1	0	0	4579.81	4739.52	4244.13	9.52488	3424.78	1661.24	517.826	5045.39	6745.32	7646.1	6483.02	76.2885	4981.96	2598.97	952.707	8706.94	152.717	340.159	151.282	284.120	327.971	330.705	335.425	328.114	8192	-8191	8192	8192	254	
77735.930	1	1	0	0	4521.46	4706.82	4271.85	4.72771	3470.76	1571.67	505.592	4978.5	6679.46	7640.92	6517.09	78.774	5024.1	2524.88	938.976	8679.53	152.138	340.355	151.646	314.354	327.383	331.943	335.659	327.479	8192	-8191	8192	8192	254	
77735.977	1	1	0	0	4519.75	4690.87	4206.06	3.92326	3493.63	1604.97	537.857	5020.83	6708.86	7619.02	6494.83	82.4135	5069.18	2589.11	955.332	8682.78	152.619	340.710	151.186	353.320	327.658	332.348	332.232	327.243	8192	-8191	8192	8192	254	
77735.977	1	1	0	0	4576.49	4659.58	4199.94	1.418	3470.46	1616.49	536.205	5036.47	6737.04	7614.35	6513.18	89.8029	5052.86	2587.56	968.572	8745.97	152.914	340.884	151.442	345.559	327.932	331.379	332.914	328.062	8192	-8191	8192	8192	254	
77736.031	1	1	0	0	4510.19	4687.57	4285.67	8.10805	3449.82	1617.26	504.682	4939.51	6702.68	7636.28	6571.19	98.8365	5026.09	2612.11	959.861	8705.22	152.134	340.521	151.639	275.605	327.111	331.789	334.127	327.775	8192	-8191	8192	8192	254	
77736.078	1	1	0	0	4627.72	4732.72	4226.29	1.75012	3471.53	1647.87	528.743	4985	6792.94	7688.94	6561.62	114.298	5094.88	2643.39	999.562	8757.94	152.129	340.744	152.001	262.095	327.277	331.681	335.048	328.576	8192	-8191	8192	8192	254	
77736.125	1	1	0	0	4534.3	4821.55	4302.48	14.4613	3427.03	1621.13	532.818	4994.38	6721.57	7674.09	6598.19	120.803	5078.64	2624.88	995.976	8716.01	152.128	341.639	150.826	348.162	327.711	332.222	333.480	327.907	8192	-8191	8192	8192	254	
77736.195	1	1	0	0	4541.35	4733.23	4326.86	3.54373	3485.43	1621.79	524.526	4975.2	6770.16	7656.67	6586.27	107.356	5047.27	2609.27	967.769	8711.25	152.594	340.403	151.429	334.329	326.996	331.877	332.665	327.753	8192	-8191	8192	8192	254	
77736.242	1	1	0	0	4606.38	4630.29	4288.69	7.35175	3433.15	1623.19	483.967	5001.96	6761.77	7570.07	6533.86	87.2596	5009.88	2599.54	931.202	8705.47	152.470	340.265	151.313	85.876	327.579	332.339	334.395	328.041	8192	-8191	8192	8192	254	
77736.289	1	1	0	0	4577.68	4716.6	4269.99	10.0877	3471.24	1647.56	520.471	4975.57	6751.32	7652.23	6528.15	78.7788	5031	2598.7	937.798	8675.48	152.477	340.249	150.937	335.522	327.795	330.737	336.223	327.241	8192	-8191	8192	8192	254	
77736.336	1	1	0	0	4427.54	4639.69	4222.46	10.1291	3480.32	1615.04	523.054	5019.24	6630.94	7578.37	6467.49	75.2788	5035.29	2579.17	937.793	8694.22	152.369	339.861	150.400	345.782	327.715	330.943	335.472	327.756	8192	-8191	8192	8192	254	
77736.391	1	1	0	0	4515.21	4703.82	4278.91	6.92314	3520.31	1652.58	525.113	4992.64	6698.24	7628.09	6473.92	69.524	5010.09	2599.06	942.962	8712.5	152.393	340.539	151.593	10.982	327.844	330.090	334.654	327.279	8192	-8191	8192	8192	254	
77736.438	1	1	0	0	4525.08	4717.46	4279.71	13.0425	3442.9	1606.33	515.708	5009.95	6694.65	7659.76	6505.58	85.6394	5012.23	2567.91	950.942	8695.68	151.781	339.796	151.768	337.839	327.749	329.896	337.690	327.759	8192	-8191	8192	8192	254	
77736.484	1	1	0	0	4440.34	4677.17	4323.57	11.2179	3431.72	1630.99	540.7	5022.72	6654.59	7642.79	6575.08	109.192	5002.74	2600.11	990.899	8723.24	152.251	341.134	151.945	8.414	328.094	330.556	334.700	328.205	8192	-8191	8192	8192	254	
77736.531	1	1	0	0	4506.3	4669.28	4182.23	12.9373	3487.44	1649.7	535.309	5036.88	6701.47	7696.48	6526.96	157.861	5126.04	2677.96	1048.36	8764.05	151.736	340.965	151.181	22.683	327.224	331.241	334.761	327.708	8192	-8191	8192	8192	254	
77736.602	1	1	0	0	4521.83	4743.94	4291.86	7.04432	3497.3	1625.67	505.683	4988.3	6846.15	7770.77	6667.12	212.428	5187.13	2725.48	1065.25	8835.76	151.931	340.907	151.596	198.449	327.450	330.860	331.848	327.530	8192	-8191	8192	8192	254	
77736.648	1	1	0	0	4491.65	4728.67	4205.89	13.0595	3461.63	1621.87	527.432	5094.59	6837.42	7788.81	6685.36	235.101	5164.63	2775.66	1118.4	8976.06	151.426	340.558	151.577	313.876	327.809	330.554	335.916	328.208	8192	-8191	8192	8192	254	
77736.703	1	1	0	0	4563.05	4681.49	4278.67	7.65754	3439.99	1642.77	525.433	4981.34	6920.8	7797.25	6746.34	293.447	5227.88	2829.55	1162.08	8935.16	152.238	340.648	151.397	38.864	328.297	330.719	332.604	328.285	8192	-8191	8192	8192	254	
77736.750	1	1	0	0	4566.61	4666.16	4260.35	21.8952	3425.87	1616.5	530.347	5050.18	6957	7834.07	6739.98	296.226	5217.53	2816.89	1162.48	8931.37	152.833	340.992	151.846	293.811	328.190	329.722	336.349	328.166	8192	-8191	8192	8192	254	
77736.750	1	1	0	0	4571.65	4701.93	4274.11	16.955	3314.01	1605.46	519.574	4911.83	6924.27	7831.2	6682.35	298.385	5188	2816.67	1162.89	8844.95	152.296	340.355	150.880	277.674	327.889	330.673	333.734	327.354	8192	-8191	8192	8192	254	
77736.797	1	1	0	0	4504.65	4622.79	4242.37	17.533	3416.87	1624.77	532.535	4928.79	6905.94	7833.01	6754.03	322.827	5285.72	2833.93	1208.61	8931.77	152.556	340.706	151.243	31.486	327.234	331.400	331.012	327.372	8192	-8191	8192	8192	254	
77736.844	1	1	0	0	4496.53	4673.45	4258.26	11.2488	3472.74	1562.46	523.348	5040.23	6931.24	7892.6	6780.53	339.356	5283.17	2834.03	1209.31	8964.76	152.085	340.575	151.953	64.724	327.705	332.666	334.869	328.076	8192	-8191	8192	8192	254	
77736.891	1	1	0	0	4575.37	4632.7	4282.17	13.0094	3426.99	1574.41	511.02	5049.3	7028.47	7855.33	6806.77	379.538	5320.14	2871.9	1256.34	9058.67	151.980	340.467	151.908	12.860	328.037	331.672	333.988	327.491	8192	-8191	8192	8192	254	
77736.961	1	1	0	0	4646.65	4722.61	4337.61	15.4966	3503.08	1642.7	542.326	4976.18	7109.77	7973.06	6876.16	390.091	5391.82	2929.67	1279.5	9058.3	151.495	341.077	150.716	212.934	326.876	331.071	333.291	327.919	8192	-8191	8192	8192	254	
77737.016	1	1	0	0	4561.21	4731.32	4327.31	10.72	3469.63	1653.69	536.83	5001.42	7087.95	7994.68	6902.18	414.639	5379.62	2939.38	1298.45	9088.1	152.125	340.444	151.518	303.757	326.761	331.087	336.777	327.864	8192	-8191	8192	8192	254	
77737.062	1	1	0	0	4639.15	4714.35	4340.81	9.91361	3501.71	1672.29	526.849	4705.94	7160.79	8070.48	7025.53	445.466	5435.87	3010.85	1298.87	8557.12	151.793	341.078	150.567	321.682	327.594	332.690	335.056	327.756	8192	-8191	8192	8192	254	
77737.109	1	1	0	0	3775.87	2993.5	2044.31	3.78842	548.71	114.177	12.5013	49.3975	5915.43	5201.63	3340.56	227.553	955.356	352.841	174.918	219.764	152.154	340.085	151.148	312.543	325.647	333.892	335.100	325.393	8192	-8191	8192	8192	254	
77737.156	1	1	0	65536	17.2743	5.77758	8.49328	19.7598	83.0757	156.461	35.3654	60.0483	150.423	142.288	183.615	499.659	3060.07	13623.4	23133.3	20943.1	212.603	324.509	297.986	99.354	143.792	104.188	179.900	333.721	8192	-8191	8192	8192	254	
77737.203	1	1	0	65536	130.038	126.979	76.0428	46.2587	123.448	81.6015	52.9476	21.8823	13998.1	12515.2	14294.1	16590.7	18985.8	18580.1	19456.9	23289.4	320.233	56.334	94.508	68.236	186.551	50.562	61.333	243.430	8192	-8191	8192	8192	254	
77737.273	1	1	0	65536	111.821	125.031	46.6306	47.3601	61.9964	44.8076	32.3112	141.876	25317.2	25805	25830.5	21602.8	26685.2	29637.3	32681.7	30893.2	156.395	253.374	283.096	118.494	219.563	333.977	357.515	23.556	8192	-8191	8192	8192	254	
77737.320	1	1	0	65536	144.493	63.3853	71.1681	83.4644	102.376	67.3092	93.0221	106.209	31572.9	32117	28029.9	24473.8	22367	20390.7	21467.5	24523.7	141.893	35.590	269.949	59.444	351.484	325.990	0.467	62.169	8192	-8191	8192	8192	254	
77737.375	1	1	0	0	96.1879	82.7977	40.8421	41.9993	143.445	137.885	61.8463	121.06	26201.7	26262.5	24328.7	21255	20371.1	24511	23400.1	12742.1	163.866	344.447	144.508	80.667	301.215	73.667	20.294	273.390	8192	-8191	8192	8192	254	
77737.422	1	1	0	0	17.3951	29.1747	12.8395	26.2483	39.6034	54.0591	82.2567	43.1426	4767.48	4068.2	4132.15	8235.94	9908.91	9795.63	9938.75	9830.8	263.582	282.838	203.842	114.688	191.563	74.564	132.168	74.673	8192	-8191	8192	8192	254	
77737.469	1	1	0	0	109.726	19.5929	67.8243	44.859	60.1896	75.2609	77.9541	25.2699	10177.4	11091.4	11516	11408	11347.6	11346.1	11352.4	11296	33.512	61.678	28.391	32.204	47.375	42.553	119.515	124.439	8192	-8191	8192	8192	254	
77737.516	1	1	0	0	58.3184	29.7519	103.795	69.0847	44.0586	135.239	22.2996	62.6483	11290.3	11216.6	11171	11214.7	11128.4	11115	11088.8	11106.7	242.107	316.291	52.309	13.780	104.293	270.820	62.823	324.507	8192	-8191	8192	8192	254	
77737.516	1	1	0	0	74.4042	77.9205	52.0953	71.6772	108.737	60.5669	90.3665	56.778	11198.2	11203.8	11174.7	11124.4	11141.8	11165.7	11184.4	11127.3	69.010	354.996	101.819	345.817	21.360	336.226	287.469	206.283	8192	-8191	8192	8192	254	
77737.562	1	1	0	0	72.4314	53.3882	61.8073	43.1137	69.5928	107.603	87.0291	106.93	11130.9	11067.7	11082.3	11048.5	11082.8	11122.5	11190.6	11258.2	227.966	263.765	251.287	137.937	129.544	197.406	238.583	345.592	8192	-8191	8192	8192	254	
77737.633	1	1	0	0	41.6493	62.0094	112.002	128.072	39.7337	39.483	151.596	75.5991	11397.9	11581.5	11569.9	11681.1	11835.2	11884.4	11892.8	11957.1	42.189	346.287	173.970	138.503	217.948	112.282	28.904	62.289	8192	-8191	8192	8192	254	
77737.688	1	1	0	0	53.5935	36.0042	53.7793	87.1662	26.7702	95.734	25.8621	78.3831	11882.8	11952.7	11878.9	11692.6	11683	11640.3	11679.6	11659.4	41.472	183.419	353.319	100.309	320.315	320.698	223.775	148.565	8192	-8191	8192	8192	254	
77737.734	1	1	0	0	121.161	79.7279	85.0728	72.8735	65.7229	48.7094	74.4721	61.3707	11671.6	11712.2	11884	11913.2	11883	11869	11852.9	11675.1	143.209	311.374	192.789	130.186	257.729	12.784	37.387	295.988	8192	-8191	8192	8192	254	
77737.781	1	1	0	0	118.405	57.051	89.3781	92.3356	17.6761	59.8856	54.5959	48.4196	11681.6	11619.2	11398.8	11313.8	11230	11025.3	10831.1	10784.2	198.656	199.735	333.886	81.643	126.572	196.719	121.288	7.771	8192	-8191	8192	8192	254	
77737.828	1	1	0	0	27.5229	60.0177	58.7752	49.8931	73.5191	79.379	40.7807	25.2975	10756.7	10742.5	10744	10805.6	10878.5	10897.4	10972.4	11025.2	305.893	317.802	153.037	286.025	55.503	233.100	341.533	231.336	8192	-8191	8192	8192	254	
77737.875	1	1	0	0	50.087	11.8674	17.5356	94.9016	72.0718	93.8109	33.0572	85.1297	10958.1	10918.3	10986.8	11036.6	11017.5	11049	10963.4	10922.1	355.425	73.939	337.752	269.607	235.607	111.958	223.940	220.040	8192	-8191	8192	8192	254	
77737.922	1	1	0	0	20.7781	39.8399	137.464	104.274	34.7633	47.6198	27.2364	121.188	10920.9	10836.8	10797	10704.6	10569.9	10575.3	10472.6	9770.51	6.692	224.104	137.000	149.982	215.322	16.029	86.930	294.761	8192	-8191	8192	8192	254	
77737.969	1	1	0	0	19.6512	14.0925	8.33168	8.09199	8.48918	4.13829	4.47343	8.28948	1825.03	531.76	220.558	157.255	158.375	160.697	145.938	161.438	296.169	227.988	240.508	34.320	69.156	24.531	16.038	194.930	8192	-8191	8192	8192	254	
77738.047	1	1	0	0	8.97336	3.5788	11.1053	1.9517	29.736	10.56	5.20631	26.3718	165.995	165.74	176.115	182.462	214.981	213.264	206.928	245.846	92.578	306.809	171.962	86.558	327.257	299.316	40.003	317.568	8192	-8191	8192	8192	254	
77738.094	1	1	0	0	8.16233	8.6496	23.2771	5.96019	15.0949	12.0743	14.4162	37.1545	229.37	215.245	218.716	196.712	214.245	202.178	198.399	258.899	139.513	13.429	156.010	293.712	13.549	341.950	326.371	336.582	8192	-8191	8192	8192	254	
77738.141	1	1	0	0	34.4324	66.8666	137.958	2.81568	387.756	278.685	128.525	1114.08	236.976	302.346	439.572	282.024	944.553	887.947	740.341	2534.25	159.843	350.099	156.307	328.166	334.084	338.852	349.793	333.673	8192	-8191	8192	8192	254	
77738.188	1	1	0	0	970.041	934.996	924.753	10.7508	775.394	364.956	108.431	1186.9	2004.34	2134.22	1972.47	604.096	1723.78	1183.73	818.851	2674.63	161.133	348.037	156.564	259.500	331.934	340.250	342.983	332.781	8192	-8191	8192	8192	254	
77738.234	1	1	0	0	1001.8	1015.66	938.681	5.76946	761.376	370.776	111.029	1187.79	2068.42	2275.68	2030.96	620.952	1765.62	1245.72	833.899	2710.58	158.648	346.652	157.064	148.650	333.292	339.897	340.239	332.354	8192	-8191	8192	8192	254	
77738.281	1	1	0	0	1023.15	1028.7	945.479	12.5	814.147	388.93	148.379	1245.11	2145.36	2310.71	2124.07	640.332	1813.97	1243.86	871.293	2789.36	158.477	347.678	156.042	37.678	334.046	335.496	340.270	332.038	8192	-8191	8192	8192	254	
77738.281	1	1	0	0	1044.34	1047.13	995.007	26.6796	825.588	397.299	153.48	1300.44	2213.41	2387.86	2182.64	660.798	1847.4	1300.59	904.048	2893.84	157.785	345.327	158.615	315.615	333.997	335.404	337.672	333.153	8192	-8191	8192	8192	254	
77738.328	1	1	0	0	1062.75	1084	1024.99	2.0926	842.839	446.065	146.104	1297.62	2231.32	2455.33	2195.41	648.596	1885.88	1302.69	887.423	2911.02	157.426	346.245	155.709	173.426	331.651	335.235	342.865	335.169	8192	-8191	8192	8192	254	
77738.383	1	1	0	0	1096.15	1107.39	1011.06	35.1375	875.931	425.548	128.024	1336.43	2255.88	2450.53	2142.92	638.611	1892.08	1289.56	858.168	2880.2	157.243	345.797	158.419	9.553	335.334	337.238	339.307	332.369	8192	-8191	8192	8192	254	
77738.430	1	1	0	0	1144.26	1165.94	1076.25	12.9783	882.111	426.194	143.866	1393.63	2284.92	2453.8	2197.42	588.832	1858.86	1259.38	807.731	2908.14	158.292	346.332	156.117	53.838	333.818	333.441	339.308	333.918	8192	-8191	8192	8192	254	
77738.500	1	1	0	0	1149	1160.46	1091.84	21.1144	889.827	482.201	137.575	1324.78	2231.22	2416.42	2151.32	506.279	1752.31	1160.01	658.962	2706.22	157.355	345.456	157.980	103.593	332.634	332.751	332.489	333.110	8192	-8191	8192	8192	254	
77738.547	1	1	0	0	1093.83	1175.23	1019.81	9.46453	873.831	450.719	132.721	1282.67	2039.33	2246.62	1939.08	343.337	1565.51	951.928	491.962	2435.36	156.670	348.302	158.855	142.176	332.635	336.094	337.786	333.875	8192	-8191	8192	8192	254	
77738.594	1	1	0	0	1051.59	1081.73	961.192	11.2626	793.608	370.902	122.872	1143.73	1783.67	1910.7	1648.97	174.404	1297.98	726.562	360.087	2143.81	157.963	347.509	158.142	288.644	334.815	334.755	339.946	332.389	8192	-8191	8192	8192	254	
77738.641	1	1	0	0	977.538	980.594	934.276	5.94043	825.945	382.093	126.329	1154.94	1564.97	1691.55	1493.99	114.413	1234.96	677.865	300.394	2081.63	158.871	346.153	157.239	35.580	334.439	337.250	336.364	332.527	8192	-8191	8192	8192	254	
77738.695	1	1	0	0	1006.54	949.208	878.269	4.59876	782.617	388.703	114.493	1183.94	1515.13	1634.18	1408.35	73.0385	1165.95	648.74	263.25	2052.38	159.015	345.479	157.455	258.923	333.984	336.821	340.372	332.708	8192	-8191	8192	8192	254	
77738.742	1	1	0	0	950.046	960.209	906.452	1.16818	737.896	372.82	117.08	1138.72	1453.68	1633.85	1425.04	55.6058	1134.13	638.909	256.577	2023.15	159.369	348.140	155.453	25.027	332.430	337.700	340.227	333.017	8192	-8191	8192	8192	254	
77738.789	1	1	0	0	986.708	943.683	893.254	8.9838	747.052	368.827	116.252	1115.53	1466.58	1571.53	1408.25	52.1779	1136.36	637.803	241.832	2007.57	158.595	348.233	156.665	297.054	331.826	337.888	342.955	333.748	8192	-8191	8192	8192	254	
77738.836	1	1	0	0	967.823	991.677	864.901	6.72759	753.909	356.944	125.565	1152.07	1463.32	1616.07	1397.76	51.2115	1146.13	617.178	251.428	2002.94	158.242	347.257	156.971	50.457	331.557	338.242	335.217	333.951	8192	-8191	8192	8192	254	
77738.906	1	1	0	0	924.103	985.738	899.705	3.38913	753.942	376.034	116.932	1148.91	1427.74	1598.38	1386.91	61.0337	1133.96	642.293	254.418	2023.36	157.281	344.686	155.660	88.298	334.919	336.850	343.150	331.594	8192	-8191	8192	8192	254	
77738.953	1	1	0	0	1011.79	996.755	913.797	10.6141	731.682	347.743	126.123	1145.71	1491.99	1638.19	1429.06	67.5385	1143.14	634.409	268.433	2042.16	159.942	347.176	157.371	241.830	333.240	334.098	333.426	333.859	8192	-8191	8192	8192	254	
77739.008	1	1	0	0	939.316	957.852	880.219	8.9357	733.068	367.541	123.694	1145.67	1457.67	1630.45	1401.92	79.3125	1136.65	647.837	267.087	2055.18	157.250	348.282	156.290	96.911	334.243	338.022	342.225	331.937	8192	-8191	8192	8192	254	
77739.055	1	1	0	0	966.508	961.338	894.495	7.56048	746.154	362.136	105.722	1118.48	1460.68	1628.33	1410.23	74.4904	1141.47	636.188	254.466	2017.51	158.637	347.248	158.967	97.546	333.367	336.953	338.867	332.365	8192	-8191	8192	8192	254	
77739.055	1	1	0	0	917.231	943.729	911.174	1.53373	725.17	379.897	129.205	1155.94	1427.78	1582.98	1393.62	52.8365	1109.62	622.476	248.37	2018.99	157.984	346.292	158.167	152.816	332.581	336.285	339.486	332.081	8192	-8191	8192	8192	254	
77739.102	1	1	0	0	955.672	967.943	886.919	5.28889	759.515	351.864	109.657	1104.91	1444.55	1591.67	1384.7	45.5673	1131.91	609.736	242.899	1969.03	158.619	348.218	156.460	57.460	333.880	337.746	343.608	332.411	8192	-8191	8192	8192	254	
77739.172	1	1	0	0	903.981	949.875	875.16	4.94943	769.918	365.901	120.564	1156.25	1405.18	1578.04	1362.41	44.4856	1133.5	615.25	251.457	2014.33	156.506	345.294	154.159	354.871	332.580	338.997	345.401	332.688	8192	-8191	8192	8192	254	
77739.219	1	1	0	0	918.113	958.702	876.727	3.11107	736.814	381.895	109.815	1138.69	1408.91	1590.84	1368.53	49.3269	1117.44	625.894	248.774	1969.88	159.452	347.143	158.640	15.126	332.550	337.149	335.252	332.477	8192	-8191	8192	8192	254	
77739.266	1	1	0	0	944.374	977.878	898.418	2.55767	758.599	353.109	120.607	1118.47	1444.16	1591.01	1386.72	43.476	1136.82	619.798	236.837	1975.19	159.116	346.971	157.063	119.878	332.585	337.594	343.822	331.844	8192	-8191	8192	8192	254	
77739.312	1	1	0	0	958.113	968.442	869.496	7.68386	759.177	353.285	119.505	1121.26	1442.57	1584.89	1376.02	48.3702	1131.06	601.673	246.067	1992.34	156.423	344.970	156.719	339.907	332.951	338.089	341.496	333.147	8192	-8191	8192	8192	254	
77739.367	1	1	0	0	987.104	932.864	881.481	5.14067	763.109	345.336	120.165	1146.47	1435.43	1566.31	1380.25	46.0481	1132.9	608.062	248.356	2025.7	159.008	347.060	156.745	316.114	332.817	336.178	339.480	333.302	8192	-8191	8192	8192	254	
77739.414	1	1	0	0	949.511	955.906	871.886	1.36907	749.088	358.708	123.557	1161.11	1427.35	1583.56	1370.53	47.3462	1120.29	605.582	237.356	2009.68	160.751	346.526	158.447	274.905	331.993	339.502	343.217	334.257	8192	-8191	8192	8192	254	
77739.461	1	1	0	0	922.251	944.913	877.845	2.57996	792.605	381.308	115.439	1111.5	1429.03	1586.52	1365.87	43.6202	1136.44	621.317	244.255	2002.96	159.237	347.195	157.777	189.637	331.814	336.002	346.346	333.187	8192	-8191	8192	8192	254	
77739.508	1	1	0	0	960.4	933.881	901.972	3.24115	780.372	361.321	128.73	1158.65	1440.13	1555.26	1376.76	41.1106	1134.31	611.207	245.13	2009.78	157.833	347.182	159.137	335.289	332.611	333.997	339.455	334.371	8192	-8191	8192	8192	254	
77739.578	1	1	0	0	913.139	953.944	902.925	1.19917	728.714	382.53	125.491	1117.96	1423.38	1580.04	1377.57	48.2115	1113.12	607.582	244.962	1984.43	157.874	345.374	156.001	115.895	332.361	334.664	339.238	334.382	8192	-8191	8192	8192	254	
77739.633	1	1	0	0	937.976	952.862	860.175	7.71451	749.826	363.906	118.509	1147.38	1420.58	1577.39	1361.43	46.9663	1106.42	619.062	245.135	1996.88	157.125	346.489	156.083	26.910	333.162	337.871	340.684	332.478	8192	-8191	8192	8192	254	
77739.680	1	1	0	0	928.16	940.589	885.08	6.16791	736.952	351.111	108.54	1169.43	1427.15	1579.63	1384.18	47.0721	1132.92	604.644	240.678	2012.31	158.023	348.175	155.692	354.942	335.071	335.459	340.276	331.592	8192	-8191	8192	8192	254	
77739.727	1	1	0	0	948.226	921.182	844.461	2.7553	769.399	387.451	114.008	1126.15	1448.32	1571.16	1359.95	51.9375	1137.77	626.327	249.067	2002.32	157.436	346.382	157.217	164.009	334.783	335.617	341.392	331.857	8192	-8191	8192	8192	254	
77739.773	1	1	0	0	924.441	951.42	880.255	5.62512	770.009	353.305	123.055	1151.31	1395.63	1567.2	1385.5	49.8702	1134.21	617.351	244.803	2009.79	158.219	345.626	154.957	344.749	332.341	334.763	341.699	334.018	8192	-8191	8192	8192	254	
77739.820	1	1	0	0	942.188	964.352	854.13	4.68268	727.27	395.659	119.775	1128.79	1424.1	1571.59	1367.23	44.8269	1108.2	625.524	251.591	1981.23	158.314	344.233	158.350	321.449	333.208	335.605	338.858	331.491	8192	-8191	8192	8192	254	
77739.820	1	1	0	0	916.463	937.982	901.134	3.02448	754.908	385.603	130.194	1131.36	1412.36	1563.01	1389.25	48.1106	1115.58	635.861	252.298	1996.62	158.072	345.821	157.043	91.945	334.358	334.458	339.001	333.865	8192	-8191	8192	8192	254	
77739.867	1	1	0	0	962.244	933.211	858.602	3.42721	768.122	382.557	137.202	1120.95	1433.1	1557.84	1349.84	46.9904	1130.52	622.188	250.135	2014.26	158.127	347.053	158.618	142.397	331.796	338.487	335.345	334.042	8192	-8191	8192	8192	254	
77739.914	1	1	0	0	933.188	937.545	871.986	9.80755	744.906	371.076	126.919	1139.88	1425.28	1569.04	1348.85	46.9135	1110.43	625.731	259.149	2011.64	158.950	348.482	156.408	337.261	332.079	335.948	339.596	330.623	8192	-8191	8192	8192	254	
77739.961	1	1	0	0	917.24	945.145	881.553	4.83296	750.017	391.143	126.255	1113.17	1396.72	1581.4	1371.99	48.4952	1119.11	628.332	242.447	1974.19	158.714	348.382	155.413	164.191	333.933	338.035	339.303	332.997	8192	-8191	8192	8192	254	
77740.039	1	1	3	0	941.687	938.439	875.713	2.44079	766.889	359.686	124.747	1112.62	1422.92	1568.06	1368.3	46.8846	1126.97	596.822	244.812	1986.5	157.351	347.681	155.927	315.265	332.559	334.356	336.143	333.577	8192	-8191	8192	8192	254	
77740.086	1	1	0	0	939.982	932.6	878.942	3.69377	738.102	376.635	131.351	1096.77	1406.12	1554.65	1368.21	47.0337	1117.11	619.115	247.236	1962.49	159.304	349.298	156.340	307.447	333.412	337.130	336.451	329.935	8192	-8191	8192	8192	254	
77740.133	1	1	0	0	990.044	950.159	897.692	5.23561	735.949	341.407	120.045	1138.36	1443.39	1572.15	1368.19	39.8894	1113.34	595.505	246.13	1994.04	158.349	345.820	157.228	47.144	333.945	336.237	336.513	333.230	8192	-8191	8192	8192	254	
77740.180	1	1	0	0	962.114	975.502	891.377	3.14267	754.048	359.493	115.282	1150.43	1441.24	1578.39	1380.5	38.8077	1129.03	597.495	233.649	1995.4	157.974	346.802	156.925	273.776	330.689	335.654	336.282	332.171	8192	-8191	8192	8192	254	
77740.227	1	1	0	0	958.178	941.451	855.861	4.18176	730.678	359.877	124.095	1122.85	1422.82	1568.83	1378.48	44.5481	1100.71	615.106	239.933	1978.47	157.658	346.228	157.139	302.895	332.445	337.685	338.332	333.244	8192	-8191	8192	8192	254	
77740.273	1	1	0	0	935.766	952.961	873.062	1.21935	776.377	360.304	101.529	1091.06	1419.04	1551.12	1349.94	46.2885	1143.88	614.144	232.298	1946.91	158.398	345.847	155.739	46.533	333.277	336.176	343.060	333.190	8192	-8191	8192	8192	254	
77740.320	1	1	0	0	958.633	944.411	859.705	3.0358	754.291	352.485	104.073	1166.34	1437.58	1561.12	1365.06	42.7933	1118.3	614.519	239.356	1983.62	159.811	347.705	157.133	243.602	333.027	337.647	343.252	331.857	8192	-8191	8192	8192	254	
77740.375	1	1	0	0	915.219	963.084	853.49	6.30084	740.223	379.206	116.003	1103.01	1422.5	1563.37	1358.91	44.5337	1111.12	621.779	244.12	1964.23	158.806	346.688	157.888	275.892	332.962	338.518	342.672	332.715	8192	-8191	8192	8192	254	
77740.445	1	1	0	0	933.379	973.053	879.189	4.96006	746.183	365.896	129.894	1131.23	1415.89	1595.05	1371.86	47.3654	1116.3	614.452	253.361	1978.89	156.737	345.924	156.147	344.291	332.152	337.842	333.648	333.612	8192	-8191	8192	8192	254	
77740.492	1	1	0	0	924.38	951.612	870.058	2.91027	748.031	350.651	111.45	1130.05	1400.57	1583.23	1366.5	51.9712	1103.5	607.692	253.88	2006.77	158.776	345.895	157.049	279.076	333.340	336.838	343.823	333.788	8192	-8191	8192	8192	254	
77740.539	1	1	0	0	931.043	971.396	874.987	6.65801	729.367	371.06	119.303	1140.41	1426.33	1609.22	1371.14	52.7404	1130.04	611.659	252.788	1982.77	158.535	347.647	157.822	52.289	332.375	332.489	338.546	332.131	8192	-8191	8192	8192	254	
77740.586	1	1	0	0	889.207	933.525	873.925	0.281458	721.791	375.882	110.011	1168.71	1398.37	1595.78	1379.42	72.1587	1119.82	636.942	257.88	2018.31	157.550	346.745	156.163	76.370	332.369	337.086	343.672	333.928	8192	-8191	8192	8192	254	
77740.586	1	1	0	0	907.629	944.107	883.594	7.32502	741.427	373.668	106.429	1106.8	1437.87	1594.52	1400.92	77.7788	1148.49	646.26	268.615	2020.33	157.962	347.282	156.124	285.402	333.356	336.205	334.350	333.605	8192	-8191	8192	8192	254	
77740.641	1	1	0	0	944.598	969.444	886.422	5.48536	705.438	374.409	126.376	1142.32	1472.96	1625.47	1418.79	82.4712	1132	655.75	273.606	2041.28	159.565	348.306	156.568	284.602	333.211	336.279	343.084	333.789	8192	-8191	8192	8192	254	
77740.688	1	1	0	0	942.038	958.515	891.552	6.20334	740.943	362.854	109.098	1154.77	1474.6	1608.47	1409.88	80.3798	1143.41	643.712	272.611	2024.49	158.974	345.987	158.365	124.906	332.692	336.856	339.236	332.247	8192	-8191	8192	8192	254	
77740.734	1	1	0	0	940.656	940.569	881.712	4.4975	767.983	356.423	124.22	1124.39	1450.18	1568.21	1374.67	56.4087	1129.86	618.803	251.611	2008.72	157.893	346.248	156.480	319.679	334.423	337.721	337.493	333.193	8192	-8191	8192	8192	254	
77740.805	1	1	0	0	925.504	941.144	885.267	2.99217	748.008	363.305	121.375	1146.06	1408.88	1571.62	1394.78	50.5625	1116.02	614.014	235.572	2003.69	157.729	346.524	155.475	227.277	331.950	335.689	334.118	334.993	8192	-8191	8192	8192	254	
77740.852	1	1	0	0	961.533	982.399	880.134	2.44847	758.212	373.222	118.857	1133.05	1440.53	1605.68	1363.9	52.274	1125.02	624.423	247.409	1992.21	159.094	346.548	158.454	299.342	332.291	337.240	337.970	332.408	8192	-8191	8192	8192	254	
77740.898	1	1	0	0	936.567	975.744	870.949	5.94265	754.447	372.07	113.155	1165.85	1409.63	1582.91	1379.15	52.75	1125.94	621.779	247.697	2025.07	159.208	346.947	156.582	330.602	333.832	338.836	345.037	333.262	8192	-8191	8192	8192	254	
77740.945	1	1	0	0	961.473	950.267	868.66	1.50286	725.128	372.778	107.83	1143.92	1427	1577.84	1371.52	49.024	1110.62	628.457	238.149	1997.98	158.730	347.939	158.150	242.724	332.387	334.859	338.761	331.936	8192	-8191	8192	8192	254	
77740.992	1	1	0	0	949.566	981.883	898.341	4.55393	753.58	362.097	122.823	1158.55	1451.19	1591.5	1388.49	50.6106	1135.41	632.144	251.875	2027.37	157.521	346.237	157.000	188.971	331.692	336.069	346.405	333.920	8192	-8191	8192	8192	254	
77741.047	1	1	0	0	960.055	916.543	888.842	2.49344	756.14	363.302	110.75	1147.02	1451.81	1552.46	1371.3	50.1538	1128.63	621.361	245.183	2025.81	158.087	347.182	158.335	142.995	333.359	336.081	340.915	333.704	8192	-8191	8192	8192	254	
77741.117	1	1	0	0	957.909	965.982	919.375	0.976548	740.134	375.656	128.351	1124.17	1440.33	1578.44	1392.81	54.5481	1120.87	624.875	242.865	1990.07	159.493	349.452	158.269	149.492	331.947	336.448	340.697	331.191	8192	-8191	8192	8192	254	
77741.164	1	1	0	0	929.803	951.558	855.813	1.6331	748.387	366.584	125.867	1161.09	1422.99	1572.48	1365.72	50.1058	1116.36	623.173	245.106	1987.75	157.413	347.792	157.761	257.847	333.877	337.192	335.736	331.779	8192	-8191	8192	8192	254	
77741.211	1	1	0	0	965.44	949.807	903.99	3.67623	729.982	361.075	116.35	1148.05	1435.16	1566.58	1402.62	52.649	1114	625.072	246.428	1999.47	157.273	349.190	158.105	54.032	331.085	336.687	335.970	332.534	8192	-8191	8192	8192	254	
77741.258	1	1	0	0	971.431	917.765	900.74	3.8916	716.95	372.04	119.005	1122.55	1445.65	1549.92	1383.02	53.3558	1112.4	616.087	247.572	1989.44	158.847	347.606	157.333	68.219	332.920	334.677	338.438	333.609	8192	-8191	8192	8192	254	
77741.312	1	1	0	0	955.169	965.616	894.683	3.95861	744.551	365.909	107.136	1107.32	1426.39	1584.49	1380.98	51.601	1132.65	624.812	242.428	1992.21	157.860	346.951	157.243	144.193	333.128	335.691	336.775	332.777	8192	-8191	8192	8192	254	
77741.359	1	1	0	0	951.86	938.804	873.92	1.73008	744.546	385.344	126.367	1117.73	1437.39	1560.87	1375.15	50.8558	1130.25	637.245	250.49	1989.81	157.108	345.428	158.187	214.978	333.603	334.519	342.119	334.508	8192	-8191	8192	8192	254	
77741.359	1	1	0	0	925.779	945.069	915.496	4.55697	727.353	347.722	114.844	1156.9	1437.29	1593.5	1403.71	52.0144	1106.2	611.673	249.101	2015.99	157.554	347.106	157.245	251.401	333.602	336.827	341.279	335.007	8192	-8191	8192	8192	254	
77741.406	1	1	0	0	937.673	960.131	890.877	3.94121	755.992	349.463	131.435	1113.61	1425.87	1587.57	1394.43	57.2596	1134.08	614.755	260.207	1956.86	158.108	346.544	156.843	8.942	331.976	336.726	339.786	334.139	8192	-8191	8192	8192	254	
77741.477	1	1	0	0	937.06	952.728	894.525	5.66128	755.808	362.489	117.107	1090.15	1421.53	1577.31	1400.06	56.0962	1133.74	613.548	250.351	1986.08	157.942	345.708	155.109	330.822	333.308	335.032	337.997	333.035	8192	-8191	8192	8192	254	
77741.523	1	1	0	0	972.127	954.934	835.129	1.45909	763.95	378.673	112.859	1132.94	1453.11	1566.22	1354.82	52.4856	1116	625.692	247.567	1989.67	158.812	346.419	157.265	307.390	332.643	337.997	346.420	332.755	8192	-8191	8192	8192	254	
77741.570	1	1	0	0	922.087	943.091	860.307	4.12981	758.718	364.98	131.073	1151.14	1423.92	1548.97	1360.05	48.0337	1129.53	613.404	257.639	2002.43	157.588	347.237	154.910	55.297	331.386	340.520	340.206	333.055	8192	-8191	8192	8192	254	
77741.617	1	1	0	0	932.145	962.526	875.376	3.40919	731.196	359.291	123.384	1148.55	1428.24	1557.56	1368.72	52.7692	1112.88	617.774	255.212	2006.83	156.715	346.189	156.453	64.021	334.424	337.388	334.486	331.547	8192	-8191	8192	8192	254	
77741.672	1	1	0	0	954.228	945.333	890.455	6.27674	766.847	355.18	106.91	1146.47	1438.32	1575.25	1366.29	51.0913	1125.8	607.625	245.447	1986.26	158.633	347.766	157.153	15.819	331.591	338.582	342.755	333.073	8192	-8191	8192	8192	254	
77741.719	1	1	0	0	903.118	965.821	877.016	4.43589	753.31	366.278	127.037	1139.81	1405.83	1585.35	1356.61	49.0385	1118.88	603.692	253.774	1989.73	158.296	346.533	155.981	262.236	333.035	335.762	340.969	333.548	8192	-8191	8192	8192	254	
77741.766	1	1	0	0	918.363	949.833	889.734	6.2193	760.452	381.235	127.123	1137	1414.46	1579.45	1370.88	48.399	1109.37	618.226	248.202	1986.32	156.775	346.392	157.637	317.522	334.025	336.395	339.951	332.984	8192	-8191	8192	8192	254	
77741.812	1	1	0	0	929.381	974.087	866.52	2.42522	739.632	366.611	124.323	1132.89	1417.93	1578.85	1362.87	45.7885	1112.64	619.24	247.385	1993.6	159.406	347.120	157.042	28.745	333.646	336.310	338.769	332.336	8192	-8191	8192	8192	254	
77741.883	1	1	0	0	953.966	951.172	905.923	4.1139	722.936	388.307	117.177	1127.85	1427.16	1570.61	1380.45	50.4471	1106.16	626.288	249.553	1989.5	158.282	345.526	156.918	78.018	331.432	336.917	336.899	333.859	8192	-8191	8192	8192	254	
77741.930	1	1	0	0	936.193	973.504	854.444	6.38166	761.021	371.296	128.319	1146.12	1418.41	1586.38	1370.07	46.8846	1128.69	609.043	248.389	2010.45	158.684	346.554	158.028	331.138	332.881	337.310	344.218	334.210	8192	-8191	8192	8192	254	
77741.977	1	1	0	0	949.189	936.764	909.478	3.92196	748.009	359.421	119.513	1152.57	1419.98	1576.8	1379.39	50.1346	1105.54	605.438	236.096	1995.66	159.632	346.892	157.040	318.046	334.200	337.020	336.722	333.315	8192	-8191	8192	8192	254	
77742.031	1	1	0	0	950.315	961.822	893.841	5.32233	775.928	367.854	127.965	1122.14	1424.76	1583.86	1382.7	47.7788	1126.16	612.087	241.745	1961.1	158.848	345.936	157.372	210.859	334.701	334.936	343.688	332.889	8192	-8191	8192	8192	254	
77742.078	1	1	0	0	926.53	981.052	853.004	3.04318	779.26	373.436	120.26	1125.98	1419.72	1579.35	1366.78	43.5096	1129.4	621.404	243.726	2001.99	157.589	347.635	157.380	317.282	332.709	336.533	338.557	333.212	8192	-8191	8192	8192	254	
77742.125	1	1	0	0	933.092	945.195	855.45	5.8662	737.305	367.668	124.588	1148.38	1413.89	1561.29	1369.81	44.9087	1120.52	612.029	245.928	2008.87	158.336	346.690	157.446	307.781	332.848	335.321	337.065	332.537	8192	-8191	8192	8192	254	
77742.125	1	1	0	0	928.821	930.628	905.453	3.74065	747.045	369.328	128.206	1153.18	1406.09	1558.09	1401.24	44.2788	1114.5	615.793	237.014	1996.12	157.192	345.267	156.583	327.169	334.194	336.600	345.839	334.614	8192	-8191	8192	8192	254	
77742.172	1	1	0	0	926.36	957.066	873.144	6.97292	756.037	354.713	115.749	1115.47	1404.9	1580.95	1358.82	43.8077	1128.07	606.952	234.462	1977.36	158.612	346.785	158.143	53.923	333.094	336.452	338.828	333.290	8192	-8191	8192	8192	254	
77742.219	1	1	0	0	958.276	936.288	907.482	4.46876	725.449	372.246	120.528	1161.8	1418.95	1542.2	1371.76	46.4327	1110.25	622.062	250.048	1991.35	157.850	346.751	157.396	25.961	333.821	334.977	341.933	333.090	8192	-8191	8192	8192	254	
77742.266	1	1	0	0	968.599	948.812	871.844	4.37993	729.534	367.434	129.576	1114.2	1440.38	1548.49	1357.71	45.1587	1102.11	620.048	250.909	1999.27	159.289	347.212	157.749	282.548	333.333	335.352	336.542	334.941	8192	-8191	8192	8192	254	
77742.344	1	1	0	0	908.003	955.918	869.206	4.27132	765.07	387.639	125.719	1112.48	1394.5	1566.42	1358.79	44.5625	1124.31	623.962	241.837	1977.93	158.329	345.556	157.496	287.978	332.615	336.115	340.483	333.283	8192	-8191	8192	8192	254	
77742.391	1	1	0	0	940.614	911.525	870.303	2.97078	745.811	374.922	121.084	1122.65	1417.44	1555.45	1354.06	39.4038	1109.44	598.538	237.37	1984.15	159.272	346.092	157.222	319.269	332.726	335.884	342.725	334.404	8192	-8191	8192	8192	254	
77742.438	1	1	0	0	937	925.538	881.846	7.15831	774.265	370.748	118.097	1129.61	1407.96	1560.04	1366.45	42.7981	1131.21	614.077	232.976	1996.01	158.042	347.044	157.518	60.919	331.910	335.449	337.653	332.845	8192	-8191	8192	8192	254	
77742.484	1	1	0	0	946.163	953.905	863.033	8.28631	733.786	399.053	116.843	1120.31	1439.68	1578.86	1363.89	50.125	1115.58	631.596	250.264	1992.01	158.680	346.155	157.818	328.764	332.815	334.978	340.451	333.822	8192	-8191	8192	8192	254	
77742.531	1	1	0	0	937.436	948.62	872.183	3.06174	730.859	352.618	121.179	1119.21	1424.5	1559.98	1381.89	51.4471	1107.18	599.99	245.471	1973.96	160.353	345.949	159.012	347.612	333.269	334.582	336.486	332.040	8192	-8191	8192	8192	254	
77742.578	1	1	0	0	921.805	942.623	893.833	7.25288	732.943	391.842	117.609	1146.4	1419.25	1575.64	1389.92	61.5769	1112.67	634.115	254.649	2023.25	159.279	345.476	156.743	8.914	331.667	336.702	336.470	333.585	8192	-8191	8192	8192	254	
77742.625	1	1	0	0	926.829	937.764	891.471	5.53405	767.352	347.117	112.132	1162.92	1430	1582.56	1379.23	63.5529	1130.61	625.106	257.279	2037.98	158.532	345.461	157.949	197.336	333.615	337.232	340.574	334.752	8192	-8191	8192	8192	254	
77742.680	1	1	0	0	972.29	938.781	886.12	2.43121	730.669	378.862	121.134	1085.55	1458.17	1592.8	1406.11	70.0769	1128.86	637.346	274.154	1991.07	158.531	348.046	158.204	316.212	332.874	336.354	346.601	334.640	8192	-8191	8192	8192	254	
77742.750	1	1	0	0	954.175	929.774	856.341	2.35074	722.895	373.369	120.736	1090.15	1435.19	1567.39	1397.38	68.8942	1136.45	630.947	263.928	1996.31	158.506	347.438	156.335	63.958	334.175	335.443	334.852	334.944	8192	-8191	8192	8192	254	
77742.797	1	1	0	0	963.639	959.466	891.558	1.31871	760.724	362.646	122.521	1137.9	1460.52	1591.23	1399.56	70.8702	1147.43	636.38	266.471	2015.28	157.904	347.531	156.918	216.472	333.544	335.190	336.006	333.853	8192	-8191	8192	8192	254	
77742.844	1	1	0	0	932.789	940.867	905.839	1.47333	752.567	371.246	115.21	1112.49	1431.23	1580.86	1407.67	65.0385	1140.79	623.865	260.808	1999.53	157.140	345.120	156.150	293.837	332.710	334.827	338.154	332.583	8192	-8191	8192	8192	254	
77742.891	1	1	0	0	924.09	962.958	871.308	3.02486	762.183	368.927	107.408	1130.17	1433.36	1605.84	1381.97	58.2885	1140.41	614.808	252.37	2011.15	157.044	348.230	157.604	271.153	333.849	334.548	338.210	333.537	8192	-8191	8192	8192	254	
77742.891	1	1	0	0	972.372	955.762	875.629	5.90572	773.844	385.783	125.641	1127.56	1460.65	1584	1384.76	58.3029	1148.58	635.87	252.356	2011.64	158.376	346.730	158.164	325.103	332.491	338.173	335.555	331.757	8192	-8191	8192	8192	254	
77742.938	1	1	0	0	875.729	938.487	891.566	5.04791	731.926	359.41	113.132	1133.39	1419.41	1578.02	1403.03	59.2548	1105.75	621.452	249.221	1990.68	157.887	347.388	158.262	283.103	334.347	335.681	337.041	331.793	8192	-8191	8192	8192	254	
77743.016	1	1	0	0	934.932	946.996	881.947	5.58568	709.521	363.658	121.791	1120.99	1433	1593.7	1384.57	48.6202	1091.3	616.293	245.976	1962.33	158.232	347.026	156.529	68.244	334.607	337.077	341.045	332.977	8192	-8191	8192	8192	254	
77743.062	1	1	0	0	904.072	940.489	866.167	1.78821	741.455	356.27	123.678	1142.25	1394.02	1559.25	1378.82	46.4952	1105.77	611.462	245.312	2003.54	158.742	348.227	157.335	356.240	334.474	335.522	342.774	333.296	8192	-8191	8192	8192	254	
77743.109	1	1	0	0	923.6	958.108	861.321	8.9755	736.28	353.074	113.425	1145.82	1419.97	1582.54	1357.3	42.149	1094.56	604.399	240.966	2002.18	159.251	347.042	156.217	26.263	330.390	338.033	334.316	331.965	8192	-8191	8192	8192	254	
77743.156	1	1	0	0	934.415	947.382	868.57	1.00917	743.508	354.641	121.944	1135.38	1417.79	1571.43	1359.42	48.3606	1123.43	608.832	242.909	1987.59	156.767	346.315	157.071	349.678	333.344	336.443	345.488	333.153	8192	-8191	8192	8192	254	
77743.203	1	1	0	0	944.021	966.601	884.15	4.48193	749.022	381.113	129.181	1140.51	1420.48	1567.07	1349.02	48.7933	1111.72	624.615	247.365	1993.07	156.531	345.804	156.561	25.146	334.581	338.715	335.919	332.834	8192	-8191	8192	8192	254	
77743.250	1	1	0	0	974.981	949.691	877.348	4.42769	746.375	378.341	108.739	1150.24	1441.46	1566.39	1371.89	46.9567	1112.49	614.596	244.356	1995.8	158.168	347.480	157.112	219.335	334.391	337.127	339.997	332.581	8192	-8191	8192	8192	254	
77743.305	1	1	0	0	970.38	932.541	842.714	4.88884	752.069	367.613	114.293	1135.73	1447.62	1553.21	1356.83	48.2019	1121.43	613.524	244.082	1971.87	158.185	345.178	158.407	29.866	333.327	337.335	340.913	333.363	8192	-8191	8192	8192	254	
77743.352	1	1	0	0	910.925	926.198	892.296	2.45328	728.818	372.14	122.496	1109.28	1406.27	1558.01	1385.01	45.625	1112.26	611.553	245.236	1997.64	159.030	346.931	157.807	274.644	332.317	335.090	340.724	333.801	8192	-8191	8192	8192	254	
77743.398	1	1	0	0	926.584	956.004	837.188	7.66515	758.538	355.718	117.05	1109.5	1398.93	1552.36	1355.25	50.3942	1122.42	599.365	244.74	1993.85	159.089	347.511	156.649	358.392	332.974	334.264	340.738	333.504	8192	-8191	8192	8192	254	
77743.445	1	1	0	0	972.836	957.777	896.461	4.93112	737.488	377.657	118.431	1141.13	1442.72	1580.38	1395.98	45.1298	1110.3	622.024	237.702	2002.98	157.607	346.868	157.800	343.571	335.408	337.222	340.911	332.558	8192	-8191	8192	8192	254	
77743.516	1	1	0	0	928.026	970.134	898.237	3.50362	753.372	374.048	123.689	1111.25	1435	1588.89	1369.49	42.9712	1106.18	611.75	253.317	1981.69	159.468	347.721	157.341	117.670	335.363	337.262	340.205	333.418	8192	-8191	8192	8192	254	
77743.562	1	1	0	0	960.953	951.22	885.52	1.7338	731.143	346.848	114.683	1148.2	1426.25	1576.71	1387.11	49.4423	1117.4	607.101	244.438	2006.6	158.855	348.100	158.326	357.516	332.944	337.150	337.868	333.593	8192	-8191	8192	8192	254	
77743.609	1	1	0	0	926.33	956.622	908.049	2.91351	746.377	388.242	119.296	1142.9	1392.49	1585.35	1391.02	46.274	1117.26	628.457	244.197	1988.19	159.387	348.462	158.456	55.552	333.885	335.154	340.368	333.184	8192	-8191	8192	8192	254	
77743.656	1	1	0	0	917.814	965.642	897.697	3.42691	746.352	381.574	113.451	1105.92	1404.26	1598.09	1380.73	45.7404	1109.96	622.75	241.793	1964.24	158.078	347.882	158.254	57.560	331.923	335.730	345.604	331.764	8192	-8191	8192	8192	254	
77743.664	1	1	0	0	927.748	945.581	867.357	4.01163	725.797	360.878	109.926	1130.06	1406.57	1559.1	1348.74	44.649	1115.97	603.803	233.923	1977.01	159.152	346.755	157.008	332.122	333.118	338.907	339.684	332.387	8192	-8191	8192	8192	254	
77743.711	1	1	0	0	962.14	961.334	846.244	2.72442	749.063	379.034	124.605	1128.56	1431.98	1573.43	1350.17	45.3077	1131.81	624.072	252.798	1981.53	156.943	346.074	157.248	13.985	332.636	338.787	337.778	333.739	8192	-8191	8192	8192	254	
77743.758	1	1	0	0	942.765	938.206	871.401	5.86823	730.521	373.272	111.007	1141.68	1401.04	1585.29	1384.41	44.3365	1111.58	622.365	239.798	1985.6	158.997	348.163	156.252	44.196	333.985	335.103	339.057	333.229	8192	-8191	8192	8192	254	
77743.805	1	1	0	0	949.577	933.852	868.544	7.45778	734.488	362.43	111.332	1107.11	1422.19	1563.03	1358.69	47.1394	1105.92	611.769	247.995	1967.47	158.605	347.052	155.282	215.679	333.631	335.653	337.992	333.021	8192	-8191	8192	8192	254	
77743.875	1	1	0	0	944.131	972.439	872.345	4.99654	767.626	380.12	116.144	1136.87	1421.95	1577.36	1367.75	46.9087	1126.57	605.697	237.096	1992.7	158.659	347.248	157.427	240.763	334.595	334.692	341.374	333.084	8192	-8191	8192	8192	254	
77743.922	1	1	0	0	923.606	939.889	878.657	3.35244	730.138	364.605	117.189	1129.37	1424.76	1574.46	1362.46	45.726	1101.81	617.389	240.442	1987.89	158.754	347.759	156.002	91.634	333.300	334.101	340.868	331.847	8192	-8191	8192	8192	254	
77743.969	1	1	0	0	985.488	982.481	871.118	1.16257	772.783	372.479	111.84	1115.65	1436.4	1578.5	1369.25	46.0817	1134.75	618.567	241.938	1973.1	157.445	346.563	154.919	32.434	333.012	336.728	334.341	333.338	8192	-8191	8192	8192	254	
77744.023	1	1	0	0	905.546	956.22	867.388	3.94459	696.596	350.529	123.233	1142.26	1394.64	1577.81	1361.13	48.625	1100.08	602.327	250.111	1996.58	158.797	345.553	156.884	286.757	333.850	337.252	340.814	332.691	8192	-8191	8192	8192	254	
77744.070	1	1	0	0	918.623	949.051	897.17	6.80049	733.922	364.186	112.422	1117.18	1398.79	1562.3	1382.04	50.2067	1122.38	604.764	242.303	1976.93	158.462	347.492	157.469	343.259	332.676	340.290	335.843	333.699	8192	-8191	8192	8192	254	
77744.117	1	1	0	0	959.328	968.242	914.837	1.99152	756.099	371.796	122.93	1123.28	1426.67	1583.52	1390.15	46.3798	1132.07	617.173	239.798	1994.4	158.154	347.659	155.444	255.429	332.861	338.614	332.577	332.679	8192	-8191	8192	8192	254	
77744.188	1	1	4	0	927.104	944.609	865.13	2.97216	708.74	385.69	118.723	1140.4	1416.19	1555.55	1370.88	40.6154	1094	625.317	248.024	1998.12	157.766	345.977	157.897	41.227	333.973	337.928	344.819	333.969	8192	-8191	8192	8192	254	
77744.234	1	1	0	0	962.357	983.773	840.299	5.57286	739.812	363.453	115.312	1097.83	1427.36	1584.96	1346.5	47.625	1120.6	603.058	240.673	1992.87	158.017	346.594	156.630	13.185	332.010	334.043	346.057	333.811	8192	-8191	8192	8192	254	
77744.281	1	1	0	0	943.79	939.351	885.246	1.76793	758.233	371.567	113.104	1147.14	1418.63	1571.1	1375.26	44.9519	1121.72	618.308	241.495	2015.71	157.109	346.479	157.704	288.699	333.885	335.805	339.682	334.446	8192	-8191	8192	8192	254	
77744.336	1	1	0	0	968.033	920.654	886.408	2.57392	779.786	356.35	116.695	1147.51	1432.7	1565.73	1362.09	46.2452	1139.68	603.125	244.697	1985.75	158.066	348.356	156.656	81.614	332.918	334.049	337.938	333.144	8192	-8191	8192	8192	254	
77744.383	1	1	0	0	950.082	949.93	907.369	3.80871	723.966	357.27	121.291	1126.02	1419.62	1570.31	1378.96	55.5769	1103.54	634.005	265.442	2016.39	159.722	346.993	156.330	148.332	334.142	335.069	339.893	333.896	8192	-8191	8192	8192	254	
77744.430	1	1	0	0	950.285	975.069	888.21	11.0215	751.979	361.882	123.808	1113.41	1457.18	1632.99	1451.05	101.178	1190.11	677.947	298.394	2029.79	159.014	347.459	156.885	292.992	332.419	337.334	340.546	332.786	8192	-8191	8192	8192	254	
77744.430	1	1	0	0	919.638	972.708	879.944	3.08446	751.614	367.888	114.11	1105.71	1455.54	1616.94	1420.18	97.4615	1168.51	666.293	306.697	2029.87	157.706	346.258	156.968	54.254	331.865	333.645	343.281	333.053	8192	-8191	8192	8192	254	
77744.477	1	1	0	0	956.184	959.045	872.788	1.97856	777.829	390.494	124.008	1112.33	1505.51	1657.54	1448.6	134.346	1228.78	729.75	356.841	2090.98	157.939	347.685	157.545	334.133	333.389	336.826	338.861	331.809	8192	-8191	8192	8192	254	
77744.547	1	1	0	0	914.018	928.908	891.731	7.63948	755.127	361.757	111.191	1139.75	1523.52	1685.02	1521.86	204.697	1302.94	836.933	490.668	2234.25	158.003	346.538	157.516	58.280	333.392	339.497	340.687	331.645	8192	-8191	8192	8192	254	
77744.594	1	1	0	0	914.942	938.408	874.544	14.2676	758.135	382.311	120.499	1120.24	1619.13	1773.56	1575.54	268.01	1344.21	826.466	431.13	2135.2	158.359	347.301	157.508	157.791	332.459	334.791	335.620	333.622	8192	-8191	8192	8192	254	
77744.648	1	1	0	0	962.865	946.809	898.129	5.27733	743.175	377.957	110.234	1110.02	1573.44	1673.7	1492.05	142.976	1189.7	681.072	309.096	2056.72	159.756	346.800	157.766	43.905	332.909	335.873	343.184	334.570	8192	-8191	8192	8192	254	
77744.695	1	1	0	0	908.392	971.443	869.987	3.95939	751.562	373.826	116.668	1151.32	1449.96	1620.61	1411.46	83.6635	1166.81	651.779	283.827	2040.05	159.638	347.496	156.967	351.114	332.360	334.394	339.606	332.019	8192	-8191	8192	8192	254	
77744.742	1	1	0	0	949.591	953.483	833.507	3.46551	729.276	366.343	118.157	1085.78	1448.48	1601.43	1364.93	68.7933	1102.67	626.072	256.861	1996.47	157.201	346.651	157.398	15.178	333.456	339.350	343.096	334.515	8192	-8191	8192	8192	254	
77744.789	1	1	0	0	948.728	948.49	876.979	2.29372	748.571	364.304	128.704	1123.04	1463.14	1581.75	1395.82	59.5962	1139.1	618.038	262.615	1994.65	157.550	345.623	158.063	331.552	331.778	338.471	340.736	333.343	8192	-8191	8192	8192	254	
77744.836	1	1	0	0	935.241	966.968	896.084	1.36249	751.449	359.441	114.879	1129.92	1451	1579.2	1393.35	62.649	1130.56	617.058	253.101	2013.11	157.059	346.623	157.385	345.686	332.161	337.514	345.640	333.351	8192	-8191	8192	8192	254	
77744.883	1	1	0	0	918.848	917.979	870.056	5.06138	723.008	364.497	108.294	1132.67	1440.24	1592.67	1389.31	76.8413	1132.37	640.986	267.995	2026.45	159.171	345.406	157.365	61.694	331.293	337.716	338.174	334.308	8192	-8191	8192	8192	254	
77744.930	1	1	0	0	962.678	951.196	860.738	4.73133	744.609	374.829	124.065	1141.05	1471.31	1616.19	1409.08	93.9087	1176.56	669.755	302.188	2078.68	159.871	346.154	157.074	159.299	333.013	337.342	341.915	331.174	8192	-8191	8192	8192	254	
77744.984	1	1	0	0	956.957	936.705	870.611	7.37371	758.192	363.849	129.238	1121.25	1501.8	1633.99	1451.32	137.812	1228.08	709.99	368.856	2106.54	159.195	344.787	157.672	12.588	333.517	337.845	337.639	332.505	8192	-8191	8192	8192	254	
77745.055	1	1	0	0	957.075	915.776	845.507	16.1145	732.257	366.163	117.79	1098.5	1580.62	1708.34	1552.17	221.495	1271.04	767.889	421.159	2129.08	157.830	345.643	159.058	31.975	334.918	337.232	338.886	333.027	8192	-8191	8192	8192	254	
77745.102	1	1	0	0	924.906	934.393	865.995	13.3846	733.357	370.426	111.064	1144.61	1577.98	1739.98	1521.95	224.361	1281.71	793.106	407.889	2167.19	158.488	347.056	156.977	270.300	332.572	338.966	344.656	333.362	8192	-8191	8192	8192	254	
77745.148	1	1	0	0	999.771	944.614	881.51	8.57511	765.048	361.25	104.919	1105.61	1615.97	1747.91	1549	227.067	1299.88	802.471	434.649	2191.09	156.234	348.520	157.629	20.632	332.058	337.821	342.476	333.959	8192	-8191	8192	8192	254	
77745.195	1	1	0	0	911.71	920.415	836.197	6.29893	725.413	339.99	104.87	1115.31	1603.08	1773.87	1571.19	263.135	1318.04	828.976	465.442	2226.23	159.214	347.284	157.381	74.064	333.615	338.193	344.704	333.819	8192	-8191	8192	8192	254	
77745.195	1	1	0	0	930.549	923.807	877.835	8.89538	768.748	344.201	127.05	1113.95	1662.72	1827.87	1609.01	299.529	1402	857.457	511.688	2266.81	158.049	347.031	157.788	89.003	331.474	338.397	332.974	333.574	8192	-8191	8192	8192	254	
77745.242	1	1	0	0	923.951	974.851	869.4	6.44614	735.317	353.35	117.491	1154.47	1697.98	1833.46	1641.33	322.817	1370.28	872.87	524.548	2272.42	158.595	345.980	157.767	287.233	332.815	340.108	340.397	333.945	8192	-8191	8192	8192	254	
77745.297	1	1	0	0	948.425	922.09	929.828	4.59866	769.644	340.232	129.488	1116.85	1702.93	1837.36	1698.52	315.904	1410.26	889.293	537.178	2249.92	159.111	346.848	155.364	133.381	333.568	337.939	340.641	333.071	8192	-8191	8192	8192	254	
77745.344	1	1	0	0	917.289	935.155	860.908	7.87025	764.706	377.823	119.356	1141.21	1701.09	1845.05	1681.82	343.716	1435.77	918.019	556.529	2306.79	157.592	346.017	156.709	286.556	332.448	336.804	338.020	332.811	8192	-8191	8192	8192	254	
77745.414	1	1	0	0	931.73	969.533	856.163	4.92633	673.282	341.44	108.249	860.589	1746.55	1871.54	1654.38	373.298	1354.42	876.034	505.404	1761.52	157.453	346.903	155.392	349.792	332.638	335.421	335.139	333.415	8192	-8191	8192	8192	254	
77745.461	1	1	0	0	531.714	340.396	230.178	2.82888	33.7667	11.9651	3.4873	10.892	1054.12	798.649	527.712	183.851	220.255	164.471	158.312	149	159.746	346.444	158.588	175.430	332.353	233.997	162.288	16.372	8192	-8191	8192	8192	254	
77745.508	1	1	0	65536	9.42146	4.60588	1.68808	232.543	26.947	26.9692	90.9655	13.6698	141.673	197.212	986.5	15505	32741.9	27442	16249.3	14561.7	247.923	10.850	111.816	112.967	107.870	231.254	301.649	340.080	8192	-8191	8192	8192	254	
77745.555	1	1	0	65536	22.7182	68.2171	65.9788	91.7745	105.662	129.559	42.163	61.6063	14922.2	15715.9	16860.4	17827.5	19011.8	20084.4	21055.1	21789.8	96.646	359.969	114.141	11.135	189.139	351.431	218.983	39.643	8192	-8191	8192	8192	254	
77745.602	1	1	0	0	76.9253	36.7694	42.3307	48.5256	161.011	118.625	158.787	86.7045	22968.9	24419	25280.4	25911.2	26171.9	26227.6	26472.2	26866.8	263.092	51.348	68.829	304.339	244.856	186.538	35.694	252.758	8192	-8191	8192	8192	254	
77745.648	1	1	0	0	71.1977	11.936	63.6164	95.5784	91.6719	17.8301	63.0646	166.062	27115.8	27381	27311.7	27074	27257.8	27140.4	27365.9	28448.1	218.664	185.042	357.258	149.411	271.197	82.818	172.740	289.799	8192	-8191	8192	8192	254	
77745.727	1	1	0	65536	116.271	106.157	98.926	118.881	244.164	8.02933	153.014	180.713	29143.5	27397.3	27068.7	26923.1	25374.1	27381.5	29612.9	23437.4	81.711	312.035	339.214	276.161	134.413	163.326	135.835	276.648	8192	-8191	8192	8192	254	
77745.773	1	1	0	65536	123.54	13.2412	23.6523	10.2534	23.0674	4.7566	33.8674	10.8774	10252.1	3438.96	2341.61	1474.26	1521.55	1549.11	1548.22	1602.08	307.550	79.755	187.515	60.801	308.132	42.179	68.217	322.610	8192	-8191	8192	8192	254	
77745.820	1	1	0	0	21.0425	18.0126	32.376	36.2416	26.466	3.22274	11.9065	3.17336	1631.37	1712.71	1749.24	1791.34	1800.82	1852.04	1824.6	1847.29	356.808	195.348	341.414	139.854	180.397	339.363	173.648	87.402	8192	-8191	8192	8192	254	
77745.867	1	1	0	0	20.804	25.0404	18.3577	81.6472	31.9207	96.364	79.138	4.16865	1869.04	1916.1	1951.8	5210.88	8269	6568.76	5130.22	4540.22	346.633	1.570	150.079	107.790	189.388	275.925	14.805	239.223	8192	-8191	8192	8192	254	
77745.914	1	1	0	0	61.5667	17.9064	11.7808	32.9352	47.6204	28.2367	27.0341	25.799	4237.97	4023.67	3689.52	3367.95	3001.29	2591.38	2174.97	1694.81	81.640	121.881	308.943	241.208	122.642	338.372	198.548	262.338	8192	-8191	8192	8192	254	
77745.969	1	1	0	0	30.0839	6.61326	16.532	5.96096	20.213	5.54798	2.25699	12.6951	1173.46	830.245	570.303	421.077	355.106	354.365	348.216	343.495	136.446	280.800	234.116	265.651	114.671	333.428	21.329	96.953	8192	-8191	8192	8192	254	
77745.961	1	1	0	0	3.27412	17.866	17.1427	24.6057	12.5286	3.26831	6.57615	11.9311	351.562	337.024	335.471	334.312	321.611	282.697	255.495	260.375	24.518	46.580	18.482	177.255	189.549	173.478	152.417	148.960	8192	-8191	8192	8192	254	
77746.016	1	1	0	0	5.79794	12.6152	6.76394	8.65671	5.00471	3.26164	8.11245	6.71181	245.115	227.981	210.433	183.962	174.697	165.375	162.486	152.894	48.350	294.297	326.892	298.662	200.548	102.132	351.598	202.744	8192	-8191	8192	8192	254	
77746.062	1	1	0	0	8.74431	6.74845	6.94738	6.26028	9.07503	11.1023	3.01996	8.25068	141.774	137.524	145.745	136.659	139.856	133.736	130.841	137.043	341.900	297.027	347.082	319.362	113.509	357.430	351.117	330.201	8192	-8191	8192	8192	254	
77746.109	1	1	0	0	7.38208	5.85407	2.14464	6.89817	4.84087	7.11354	5.07788	5.56667	138.029	136.918	141.058	137.572	141.163	133.096	142.293	149.125	315.673	233.002	131.239	48.415	166.124	111.672	149.576	245.743	8192	-8191	8192	8192	254	
77746.180	1	1	0	0	4.30718	5.89106	22.7648	8.87074	49.5308	47.4539	35.3817	324.565	147.188	152.12	169.327	173.284	338.476	476.803	545.981	1059.05	301.627	210.440	145.623	199.879	349.958	341.272	347.388	332.930	8192	-8191	8192	8192	254	
77746.227	1	1	0	0	252.082	221.49	250.904	15.9938	211.463	84.8947	34.1367	331.677	908.043	918.505	895.663	550.418	849.505	727.567	614.005	1112.56	166.024	353.778	163.827	49.896	345.686	331.246	18.033	337.529	8192	-8191	8192	8192	254	
77746.273	1	1	0	0	228.523	240.404	237.729	9.3322	205.939	111.118	47.3615	325.696	909.663	963.562	878.24	547.101	823.231	704.827	597.606	1101.11	162.107	354.685	157.577	163.124	342.275	338.682	336.326	335.627	8192	-8191	8192	8192	254	
77746.328	1	1	0	0	245.059	261.33	235.271	13.9213	221.231	105.976	40.3339	346.597	889.668	948.904	887.88	517.87	818.769	680.663	564.649	1098.07	159.806	353.472	163.897	246.628	343.259	339.095	329.826	339.397	8192	-8191	8192	8192	254	
77746.375	1	1	0	0	269.775	292.966	275.702	10.9044	219.896	88.0918	39.233	330.473	888.543	918.736	890.976	513.933	800.966	671.385	568.293	1105.38	165.786	351.777	160.806	297.590	338.049	338.227	348.138	339.070	8192	-8191	8192	8192	254	
77746.422	1	1	0	0	274.814	285.702	234.817	13.6823	245.994	110.974	26.8463	360.366	888.889	952.837	874.788	500.447	821.861	664.702	523.745	1086.21	162.031	355.476	165.602	347.846	338.348	339.900	28.731	337.949	8192	-8191	8192	8192	254	
77746.469	1	1	0	0	285.888	288.579	256.761	7.35683	238.092	112.955	28.3005	353.91	839.856	891.375	821.062	422.933	739.764	569.481	428.298	941.072	166.035	349.972	166.353	275.647	340.686	342.639	351.738	339.506	8192	-8191	8192	8192	254	
77746.516	1	1	0	0	290.088	273.785	256.534	18.5822	210.707	109.614	38.5699	316.596	738.995	755.981	671.966	284.707	571.476	414.562	275.952	781.731	162.508	348.704	162.501	359.146	339.047	338.196	353.325	338.264	8192	-8191	8192	8192	254	
77746.586	1	1	0	0	253.642	257.249	253.389	0.79027	214.976	99.4048	44.5618	324.487	581.178	604.567	543.683	158.106	452.683	304.327	196.923	688.606	165.516	350.844	165.382	339.519	338.230	344.674	325.308	337.917	8192	-8191	8192	8192	254	
77746.641	1	1	0	0	264.296	263.947	227.299	4.14844	222.098	109.095	22.7308	299.909	490.957	522.688	455.317	100.736	409.365	253.048	136.582	616.712	161.411	349.455	164.144	43.578	339.927	346.152	330.761	336.799	8192	-8191	8192	8192	254	
77746.688	1	1	0	0	232.99	220.89	212.498	0.925332	193.054	96.6497	29.5299	291.4	412.216	438.712	388.697	60.1298	346.154	207.389	107.077	564.841	166.311	350.878	166.171	115.165	336.967	346.370	326.335	338.577	8192	-8191	8192	8192	254	
77746.734	1	1	0	0	233.885	225.37	232.365	9.8524	191.645	84.4282	28.1337	295.282	392.577	423.356	375.048	59.4471	323.721	204.784	107.567	574.88	165.050	349.408	160.468	210.478	336.871	341.084	344.407	338.498	8192	-8191	8192	8192	254	
77746.734	1	1	0	0	229.692	233.848	208.99	7.84973	185.788	99.8541	29.8569	294.277	378.947	419.308	377.817	59.8558	321.942	218.538	112.865	564.346	162.378	352.368	163.038	265.324	337.020	343.659	358.868	337.645	8192	-8191	8192	8192	254	
77746.781	1	1	0	0	235.643	221.978	209.703	6.12612	201.033	95.1545	21.3331	294.754	397.659	421.438	377.433	69.5625	341.351	214.202	123.072	565.548	166.518	352.621	162.736	29.879	338.676	342.389	345.199	341.490	8192	-8191	8192	8192	254	
77746.828	1	1	0	0	219.695	227.903	215.435	3.39326	189.715	79.9271	37.4339	292.066	399.322	432.197	396.856	77.1875	347.327	218.288	138.188	590.764	164.492	356.449	162.221	123.111	341.380	341.437	5.295	342.998	8192	-8191	8192	8192	254	
77746.875	1	1	0	0	242.876	220.142	208.129	5.32203	175.196	106.512	37.6739	276.198	418.207	455.596	408.865	104.606	368.245	278.288	178.774	635.567	164.693	353.622	162.107	272.946	337.479	346.827	343.696	338.828	8192	-8191	8192	8192	254	
77746.945	1	1	0	0	226.109	225.817	208.068	6.55448	186.947	91.4283	29.7261	297.976	461.745	484.702	436.365	127.312	389.577	268.668	176.736	628.048	161.597	351.787	158.882	98.231	337.522	345.062	358.023	337.447	8192	-8191	8192	8192	254	
77747.000	1	1	0	0	229.603	223.952	186.613	8.26436	191.138	102.201	29.8776	272.063	447.245	458.625	426.183	97.8221	352.812	232.663	129.034	563.322	163.523	350.870	165.319	350.589	336.788	343.086	325.517	336.609	8192	-8191	8192	8192	254	
77747.047	1	1	0	0	224.394	225.113	200.761	3.794	169.831	86.5363	31.3889	274.514	382.308	410.399	359.495	45.2308	299.625	183.577	94.1394	542.971	165.366	350.048	165.472	270.250	336.887	348.982	324.438	339.288	8192	-8191	8192	8192	254	
77747.094	1	1	0	0	223.455	217.199	202.439	3.78312	197.882	95.984	26.8811	288.771	369.024	397.466	352.649	41.899	306.043	195.529	97.2067	551.37	166.235	354.151	161.880	211.171	337.499	341.656	343.810	337.160	8192	-8191	8192	8192	254	
77747.141	1	1	0	0	218.056	222.115	218.873	4.89726	186.18	102.872	31.4079	326.993	362.274	400.519	367.274	43.7788	304.337	194.053	100.938	556.428	164.964	354.265	161.365	25.060	339.090	342.725	341.375	336.932	8192	-8191	8192	8192	254	
77747.188	1	1	0	0	229.964	211.946	197.913	3.84975	194.47	98.7463	31.7931	276.436	369.26	396.005	348.139	42.8125	304.885	194.784	93.9471	545.692	165.995	352.616	165.597	158.033	335.473	343.633	348.093	339.895	8192	-8191	8192	8192	254	
77747.234	1	1	0	0	218.343	236.942	207.987	4.80608	175.905	97.1716	27.6862	295.61	372.216	403.529	352.096	43.7212	308.312	190.351	97.9808	540.678	166.203	351.972	163.834	89.000	336.549	343.857	347.968	339.970	8192	-8191	8192	8192	254	
77747.281	1	1	0	0	224.565	217.803	222.017	8.92659	186.345	90.537	28.8795	293.511	374.808	395.716	359.38	43.8413	307.769	189.63	90.3942	551.938	165.053	353.813	158.368	138.688	337.398	344.552	339.521	337.273	8192	-8191	8192	8192	254	
77747.359	1	1	0	0	216.839	218.675	200.234	5.71782	177.011	93.5939	24.6324	285.524	368.644	399.938	345.572	41.9952	303.832	179.067	94.5673	542.663	165.655	350.522	159.153	276.694	337.886	343.953	333.756	338.463	8192	-8191	8192	8192	254	
77747.406	1	1	0	0	229.585	216.603	207.54	3.78517	182.488	108.664	35.5028	279.206	367.394	384.567	348.341	43.7212	304.418	188.01	94.0721	538.856	162.938	357.583	165.814	325.898	340.358	341.461	359.254	341.096	8192	-8191	8192	8192	254	
77747.453	1	1	0	0	217.432	223.748	208.936	1.99597	195.579	84.4726	36.9361	283.915	362.231	400.212	355.678	37.3846	311.923	183.005	96.3942	545.601	167.610	353.133	161.102	190.652	336.280	345.216	347.035	338.401	8192	-8191	8192	8192	254	
77747.500	1	1	0	0	209.855	225.587	211.64	6.67285	182.048	90.6365	35.1018	303.307	357.957	400.947	354.736	39.4327	299.284	186.712	95.8894	550.087	163.914	351.975	165.675	72.621	337.600	341.172	356.412	336.464	8192	-8191	8192	8192	254	
77747.500	1	1	0	0	222.458	221.123	202.501	4.60905	196.299	95.3839	24.2077	291.022	371.712	398.029	345.793	40.9135	314.438	185.139	89.9375	552.014	164.508	354.400	160.550	32.044	336.003	338.726	343.617	339.185	8192	-8191	8192	8192	254	
77747.547	1	1	0	0	222.319	218.835	199.872	2.50706	190.103	107.894	31.2254	285.629	358.639	400.505	353.514	42.4712	315.096	195.668	96.3606	539.635	165.354	354.019	160.357	181.110	339.842	341.168	343.352	341.154	8192	-8191	8192	8192	254	
77747.594	1	1	0	0	215.098	217.498	233.413	6.88556	175.033	92.3612	27.3625	289.875	365.712	385.053	364.923	42.1635	306.793	186.159	89.5192	540.625	164.538	348.659	163.573	110.408	334.951	347.418	347.655	339.759	8192	-8191	8192	8192	254	
77747.648	1	1	0	0	217.352	221.983	199.154	1.97757	187.841	102.762	35.0521	293.764	366.726	393.596	353.909	40.5433	312.909	188.774	95.1202	552.269	164.796	353.478	164.495	263.150	336.038	347.491	349.330	339.904	8192	-8191	8192	8192	254	
77747.719	1	1	0	0	220.061	221.96	207.907	6.90143	201.611	91.9336	23.8762	312.14	366.284	396.957	352.471	44.3221	314.909	183.803	91.6731	542.284	162.339	353.528	163.159	233.602	338.769	343.504	348.802	334.585	8192	-8191	8192	8192	254	
77747.766	1	1	0	0	224.875	230.601	200.064	3.91325	173.979	104.089	38.5023	292.774	367.837	404.341	355.087	46.7356	304.37	193.981	101.236	537.567	163.192	352.451	161.818	33.786	340.607	340.258	343.000	342.974	8192	-8191	8192	8192	254	
77747.812	1	1	0	0	217.005	208.016	210.423	1.64426	187.858	92.4589	25.9986	295.022	368.288	388.856	353.418	41.4808	305.438	186.721	90.8317	542.673	163.097	355.371	161.085	164.120	340.301	345.169	332.509	337.927	8192	-8191	8192	8192	254	
77747.859	1	1	0	0	218.863	228.346	219.117	4.66202	175.675	84.6076	29.9825	286.969	354.457	393.457	355.312	46.0913	302.25	201.558	95.5096	539.284	160.957	354.079	162.972	289.043	337.618	343.060	348.537	338.113	8192	-8191	8192	8192	254	
77747.906	1	1	0	0	221.113	220.12	176.255	6.94377	185.18	95.8602	28.2593	285.187	359.942	397.361	334.87	42.2692	307.207	195.385	92.024	541.433	162.203	352.647	159.691	300.682	340.039	345.315	336.033	338.673	8192	-8191	8192	8192	254	
77747.953	1	1	0	0	210.117	211.363	192.82	4.96084	162.127	85.186	26.4423	297.323	357.312	382.923	341.332	37.5433	303.207	183.856	93.2837	539.769	161.825	353.407	164.150	273.577	338.177	342.272	336.315	337.450	8192	-8191	8192	8192	254	
77748.031	1	1	5	0	226.51	226.656	199.132	1.65043	165.904	106.37	39.9123	267.369	363.529	391.139	350.938	43.5721	300.111	187.99	94.5625	523.966	161.711	353.220	162.038	97.534	342.544	341.985	353.572	337.045	8192	-8191	8192	8192	254	
77748.078	1	1	0	0	225.499	223.614	188.567	2.94623	184.191	79.9812	33.7202	287.735	372.202	392.899	344.466	44.2933	300.183	177.452	98.6635	548.649	160.120	355.802	164.193	87.390	340.990	346.017	346.893	337.068	8192	-8191	8192	8192	254	
77748.125	1	1	0	0	214.922	220.509	210.572	3.42102	191.334	109.575	30.9117	281.646	358.087	390.37	349.659	40.4038	305.505	201.567	89.6587	523	163.823	354.082	160.968	17.937	338.627	343.388	351.479	339.332	8192	-8191	8192	8192	254	
77748.172	1	1	0	0	208.391	239.626	218.02	4.65209	175.804	91.8281	25.477	289.464	352.952	403.394	359.163	42.6106	309.101	182.861	92.0913	538.74	164.991	347.971	164.166	355.601	337.361	340.205	358.658	339.309	8192	-8191	8192	8192	254	
77748.219	1	1	0	0	227.927	216.888	193.086	4.22465	180.468	90.5367	28.9619	303.934	363.149	387.928	335.846	47.0529	304.202	183.038	93.5817	535.817	162.934	353.531	159.815	351.398	336.713	348.057	345.174	336.928	8192	-8191	8192	8192	254	
77748.266	1	1	0	0	199.445	230.382	212.739	3.0218	191.037	96.4453	30.8776	275.014	355.582	398.173	348.462	36.4135	310.062	185.25	92.4519	517.75	159.618	347.693	160.361	120.301	340.217	340.460	343.403	333.420	8192	-8191	8192	8192	254	
77748.266	1	1	0	0	228.534	225.237	207.072	4.50832	184.908	91.0815	31.3117	281.238	370.697	388.351	342.837	44.3894	302.495	183.889	88.2788	535.438	164.412	351.013	163.853	151.787	339.439	336.728	340.224	336.340	8192	-8191	8192	8192	254	
77748.320	1	1	0	0	226.246	220.808	198.594	7.2151	199.561	85.1982	30.0732	276.419	356.837	385.053	344.385	39.625	305.663	173.356	89.6779	526.832	164.189	352.822	160.295	64.527	335.551	341.967	340.881	334.651	8192	-8191	8192	8192	254	
77748.391	1	1	0	0	218.441	223.325	210.309	2.37644	196.972	93.0513	28.0778	274.355	358.486	386.673	341.875	36.6683	305.644	184.442	94.4808	516.673	166.299	348.412	159.814	65.166	340.076	342.628	353.041	337.438	8192	-8191	8192	8192	254	
77748.438	1	1	0	0	215.601	212.709	186.342	3.04361	184.233	95.6547	27.5558	283.74	358.692	386.784	341.529	39.8654	302.476	183.995	88.5481	533.245	163.080	353.632	156.315	274.403	338.699	341.088	353.375	339.547	8192	-8191	8192	8192	254	
77748.484	1	1	0	0	218.507	200.366	208.529	2.42108	191.95	97.0921	28.9544	298.579	361.082	383.702	348.019	36.6346	308.524	184.159	94.6394	543.529	161.856	351.336	162.060	125.981	340.618	340.914	348.829	337.515	8192	-8191	8192	8192	254	
77748.531	1	1	0	0	213.423	217.341	196.742	2.60725	185.448	98.5248	30.4095	305.342	358.822	380.74	342.745	36.0529	294.755	184.351	91.3798	535.856	165.170	349.677	166.156	76.981	339.823	343.423	359.483	337.330	8192	-8191	8192	8192	254	
77748.578	1	1	0	0	220.793	219.239	209.48	3.29493	182.167	98.2681	37.7136	276.042	363.707	397.438	349.899	40.2163	299.505	184.01	89.3413	532.034	164.462	355.319	161.737	309.611	341.997	347.982	338.520	338.648	8192	-8191	8192	8192	254	
77748.633	1	1	0	0	226.901	222.333	201.499	5.30826	187.893	101.845	30.6649	313.655	363.861	393.505	351.303	39.8269	308.298	189.154	88.8317	540.899	159.558	357.287	161.111	4.821	338.095	336.420	339.921	335.974	8192	-8191	8192	8192	254	
77748.680	1	1	0	0	229.16	223.06	208.368	5.33165	198.334	91.2699	30.7416	291.216	368.75	392.486	359.909	40.8894	308.284	187.548	92.2885	545.615	162.850	352.877	158.650	149.406	335.155	341.594	333.111	336.787	8192	-8191	8192	8192	254	
77748.727	1	1	0	0	220.843	234.442	183.987	0.930213	172.568	95.9674	31.094	266.064	369.615	401.822	333.409	44.3654	295.38	191.409	91.7548	530.413	163.474	352.436	163.902	313.250	338.278	338.808	352.776	339.659	8192	-8191	8192	8192	254	
77748.773	1	1	0	0	234.13	206.809	202.128	7.31312	180.222	85.9312	36.3327	295.539	369.375	379.077	340.5	38.3798	302.418	187.659	92.9856	554.918	168.133	353.078	164.045	134.674	338.408	339.972	348.768	341.740	8192	-8191	8192	8192	254	
77748.820	1	1	0	0	221.148	232.651	194.833	2.29474	183.73	87.0093	25.5315	295.757	356.529	402.192	340.928	42.0433	318.769	189.899	90.2788	539.269	163.157	352.905	161.956	126.984	337.999	347.282	341.689	339.785	8192	-8191	8192	8192	254	
77748.891	1	1	0	0	225.017	214.499	197.467	7.09135	172.767	89.3485	28.2711	268.704	371.788	403.096	336.587	43.4808	294.587	188.221	91.6971	525.913	168.337	355.051	158.706	200.906	340.256	340.728	339.546	341.096	8192	-8191	8192	8192	254	
77748.938	1	1	0	0	232.947	197.178	208.038	2.49888	189.148	98.5052	27.911	276.413	364.731	372.014	344.457	45.25	314.476	185.803	90.5144	524.053	166.249	351.879	163.661	335.684	338.902	337.850	336.052	334.213	8192	-8191	8192	8192	254	
77748.992	1	1	0	0	222.79	213.439	220.949	5.34663	165.757	92.6978	32.3439	296.815	368.606	388.341	358.154	38.5096	299.827	190.269	95.0962	549.269	164.961	352.594	161.383	318.518	340.006	344.331	345.002	336.633	8192	-8191	8192	8192	254	
77749.039	1	1	0	0	231.273	208.422	203.124	4.04182	181.363	93.801	34.8773	280.812	369.99	396.298	349.716	40.649	304.611	181.716	94.4231	523.861	162.388	354.616	165.595	330.469	336.732	345.089	351.343	339.664	8192	-8191	8192	8192	254	
77749.039	1	1	0	0	212.8	203.022	191.53	6.01162	177.635	87.9301	33.2838	265.343	370.053	378.611	342.957	46.7163	295.529	188.433	98.5721	521.841	162.125	349.658	164.746	84.885	334.994	341.392	331.825	339.512	8192	-8191	8192	8192	254	
77749.086	1	1	0	0	229.135	213.597	211.576	2.46928	189.09	88.8466	34.5309	289.878	378.385	399.202	354.005	44.1875	307.654	180.947	95.5529	532.428	164.645	353.041	164.099	175.830	336.749	336.743	339.683	334.916	8192	-8191	8192	8192	254	
77749.133	1	1	0	0	203.336	201.06	197.852	3.17813	179.336	91.8449	34.6136	291.734	353.303	379.678	343.457	43.2308	293.202	187.683	92.8221	527.875	162.349	353.779	163.854	129.112	337.810	344.475	352.518	333.507	8192	-8191	8192	8192	254	
77749.180	1	1	0	0	224.436	215.305	213.273	3.59026	183.598	88.3922	34.5022	294.184	361.635	392.784	352.317	39.875	311.37	179.745	93.5962	529.918	161.270	352.555	160.914	141.232	336.606	335.787	344.958	339.683	8192	-8191	8192	8192	254	
77749.250	1	1	0	0	212.391	221.532	203.493	6.69942	189.633	95.0913	36.5033	273.259	360.899	387.736	351.264	40.2644	301.663	185.865	90.3029	521.846	159.216	353.904	166.411	141.311	336.793	334.502	334.902	335.930	8192	-8191	8192	8192	254	
77749.297	1	1	0	0	223.129	218.885	202.094	2.9893	172.013	93.7392	29.9916	277.663	356.745	381.663	347.346	41.8702	302.769	184.606	87.7692	519.736	163.770	352.539	160.162	304.604	337.886	347.308	335.481	340.079	8192	-8191	8192	8192	254	
77749.352	1	1	0	0	199.954	217.244	176.278	2.86573	190.243	94.2172	28.6304	264.565	350.702	387.716	336.577	41.5144	296.312	186.154	90.9856	511.298	162.345	352.379	159.424	147.721	337.398	336.949	327.961	337.909	8192	-8191	8192	8192	254	
77749.398	1	1	0	0	218.237	225.916	194.749	1.06583	169.305	89.0145	31.2901	268.229	357.553	400.428	342.712	39.7596	301	180.048	90.7356	499.149	162.028	353.546	159.666	346.499	340.243	342.213	349.771	338.472	8192	-8191	8192	8192	254	
77749.445	1	1	0	0	215.011	210.079	204.433	3.0154	175.481	89.9716	26.8813	274.684	356.51	384.51	343.885	40.5865	297.788	190.053	88.4856	507.846	163.779	354.494	162.313	155.222	339.866	336.910	346.207	338.781	8192	-8191	8192	8192	254	
77749.492	1	1	0	0	216.655	209.504	190.661	3.02982	186.721	95.783	22.0197	272.343	343.981	380.745	334.274	41.7212	297.115	187.192	91.5192	514.611	166.281	354.638	165.397	277.444	335.152	339.782	344.396	341.522	8192	-8191	8192	8192	254	
77749.562	1	1	0	0	200.269	208.71	196.904	4.99428	179.458	90.753	31.5042	272.415	346.394	390.769	357.216	41.0337	298.596	188.817	91.0673	498.37	165.778	350.662	164.234	329.714	336.132	343.686	345.831	339.594	8192	-8191	8192	8192	254	
77749.609	1	1	0	0	202.879	212.604	207.797	2.18395	171.174	96.7162	36.551	272.723	358.452	389.466	361.188	41.8173	288.894	187.163	97.9087	498.587	162.138	352.796	160.373	287.159	339.158	344.869	338.252	338.118	8192	-8191	8192	8192	254	
77749.664	1	1	0	0	209.446	222.787	209.102	5.83905	180.787	87.6238	26.5513	253.299	344.952	403.101	361.168	41.9423	295.394	174.596	91.0192	489.534	161.988	352.617	155.677	335.712	337.806	342.555	340.856	340.485	8192	-8191	8192	8192	254	
77749.711	1	1	0	0	207.79	222.468	203.496	5.54877	163.98	89.9179	35.8356	254.893	354.178	398.635	342.731	43.8894	298.332	185.745	93.2933	510.51	162.156	350.168	161.691	74.998	343.621	338.501	348.408	340.483	8192	-8191	8192	8192	254	
77749.758	1	1	0	0	211.069	235.758	207.765	4.70554	175.988	89.9589	25.2147	267.774	353.918	413.755	360.697	44.1442	308.971	179.986	89.274	508.077	163.106	352.335	164.980	4.282	338.829	346.191	337.399	337.975	8192	-8191	8192	8192	254	
77749.805	1	1	0	0	223.676	221.556	211.863	1.04458	176.36	94.1705	30.7823	266.984	360.692	403.053	363.625	42.9135	303.433	179.769	88.8846	518.279	162.579	353.774	160.667	83.916	333.617	342.989	358.252	339.278	8192	-8191	8192	8192	254	
77749.805	1	1	0	0	214.343	227.964	202.459	1.29919	189.821	86.8055	31.5564	286.119	361.067	414.865	350.505	46.1875	309.784	187.668	96.7115	538.284	163.682	352.975	164.231	231.841	342.243	349.285	346.042	336.079	8192	-8191	8192	8192	254	
77749.852	1	1	0	0	238.94	226.015	178.993	1.93296	182.648	93.5983	21.9029	290.739	376.899	403.284	340.774	43.6058	312.312	196.37	89.3365	554.471	163.035	351.610	163.322	23.586	340.640	342.228	350.967	337.553	8192	-8191	8192	8192	254	
77749.898	1	1	0	0	222.032	240.34	184.488	4.22238	187.231	95.5828	27.397	301.536	368.649	401.76	341.798	43.0673	312.139	189.846	95.0144	548.697	164.378	355.854	163.485	89.410	338.848	339.908	348.407	336.165	8192	-8191	8192	8192	254	
77749.945	1	1	0	0	212.054	232.421	190.52	7.44781	188.172	95.7598	20.9773	285.711	366.125	411.697	345.034	41.8269	307.442	191.005	95.5481	545.793	164.604	349.845	161.743	236.687	339.679	342.875	345.047	339.829	8192	-8191	8192	8192	254	
77750.023	1	1	0	0	195.176	212.354	200.13	1.06796	180.586	96.3305	26.5463	307.55	361.548	394.135	341.293	39.6346	306.942	188.606	96.875	548.269	160.043	352.925	163.548	160.756	337.096	343.939	324.619	338.047	8192	-8191	8192	8192	254	
77750.070	1	1	0	0	229.755	239.452	201.216	6.1886	197.756	96.6245	32.6436	283.906	370.51	421.26	353.971	42.8894	316.024	194.875	96.2115	537.625	163.140	354.198	161.524	293.173	336.573	341.929	342.983	338.787	8192	-8191	8192	8192	254	
77750.117	1	1	0	0	221.936	226.942	202.957	2.63813	205.569	97.975	35.2675	294.166	366.918	405.077	364.812	41.9279	315.154	189.466	94.3702	541.317	164.645	351.812	161.104	93.300	336.709	336.015	340.676	339.390	8192	-8191	8192	8192	254	
77750.164	1	1	0	0	218.439	230.469	195.078	6.02959	187.353	98.7214	34.531	286.072	362.341	412.476	355.447	41.8894	318.899	192.846	92.4279	529.707	163.129	357.907	169.363	72.596	338.237	343.326	353.410	337.621	8192	-8191	8192	8192	254	
77750.211	1	1	0	0	224.526	246.457	206.315	3.74864	178.486	95.2471	37.2666	291.408	370.793	418.99	360.659	40.7356	300.096	195.462	94.5865	543.101	163.957	350.390	165.591	321.215	340.224	344.248	348.780	340.189	8192	-8191	8192	8192	254	
77750.258	1	1	0	0	217.859	219.651	219.653	3.23893	185.412	91.4757	30.2109	273.05	364.49	398.327	360.745	43.8029	299.986	184.236	97.0385	534.51	162.284	351.909	161.372	132.172	337.061	336.201	341.791	340.497	8192	-8191	8192	8192	254	
77750.312	1	1	0	0	223.295	226.054	205.815	3.29471	185.074	93.5406	34.9093	297.216	368.63	398.923	350.077	41.1154	307.779	185.548	91.9087	548.986	165.355	355.844	161.009	192.741	339.778	349.583	346.022	337.231	8192	-8191	8192	8192	254	
77750.359	1	1	0	0	218.01	219.325	204.941	2.26391	184.904	92.5675	26.0495	279.207	363.413	405.76	355.375	44.226	307.269	186.558	93.8173	536.668	164.806	352.513	166.230	229.113	340.806	335.795	348.527	338.453	8192	-8191	8192	8192	254	
77750.430	1	1	0	0	230.958	222.059	206.06	4.50958	191.71	93.5298	32.3856	302.791	373.875	406.365	351.12	46.0625	308.639	192.534	90.7788	547.462	162.187	350.758	164.801	31.151	341.909	343.958	353.821	337.765	8192	-8191	8192	8192	254	
77750.477	1	1	0	0	218.787	227.087	196.6	1.46607	176.248	110.347	30.5146	270.516	365.481	403.88	349.115	42.3125	300.423	190.793	93.6202	523.288	164.718	353.424	166.463	184.796	334.122	342.637	331.811	340.239	8192	-8191	8192	8192	254	
77750.523	1	1	0	0	212.599	226.18	207.388	5.58657	164.628	90.5619	27.4533	288.944	366.014	399.755	359.615	41.1875	291.851	187.409	96.7644	515.25	164.386	348.970	165.214	167.758	340.050	344.922	348.603	339.028	8192	-8191	8192	8192	254	
77750.570	1	1	0	0	218.219	203.066	203.976	1.67384	186.103	83.3228	38.5986	263.771	371.077	392.159	356.452	36.75	299.418	180.572	93.2067	514.034	161.375	352.669	165.501	234.302	336.244	347.058	346.404	338.561	8192	-8191	8192	8192	254	
77750.570	1	1	0	0	209.706	225.202	207.131	1.80319	171.559	96.2694	29.2381	280.289	356.519	404.154	349.25	44.5721	303.534	190.899	91.0433	528.678	164.802	356.630	161.966	39.898	339.726	337.842	353.302	335.266	8192	-8191	8192	8192	254	
77750.617	1	1	0	0	206.492	236.938	221.381	4.5265	171.497	107.577	32.2358	291.036	346.889	413.591	363.812	43.9327	299.712	195.928	90.9808	513.163	164.098	353.932	164.647	111.980	338.936	338.861	347.118	336.670	8192	-8191	8192	8192	254	
77750.672	1	1	0	0	213.299	232.129	202.281	6.91463	175.145	90.365	36.3604	288.015	364.091	406.072	343.745	41.3413	307.139	186.486	87.9279	519.317	162.502	355.071	161.549	259.428	338.675	340.963	350.175	336.999	8192	-8191	8192	8192	254	
77750.719	1	1	0	0	220.967	228.493	219.61	3.54792	195.025	95.2988	33.3842	286.511	369.688	393.202	351.471	41.4519	307.976	187.784	88.375	534.894	167.359	352.070	162.825	0.713	337.252	346.320	350.528	336.691	8192	-8191	8192	8192	254	
77750.789	1	1	0	0	228.315	204.332	204.095	6.72027	184.784	93.8633	29.0038	293.772	373.683	384.087	348.803	44.5577	305.159	190.942	86.851	541.322	163.639	351.722	166.527	262.037	339.400	342.823	348.230	340.352	8192	-8191	8192	8192	254	
77750.836	1	1	0	0	236.757	224.076	206.045	3.43174	191.878	97.0037	26.2849	294.727	374.981	400.399	345.841	43.9471	304.361	190.091	90.4423	546.611	164.908	351.665	162.359	60.948	339.771	338.515	339.862	335.293	8192	-8191	8192	8192	254	
77750.883	1	1	0	0	228.597	233.606	203.032	1.77827	176.079	90.782	28.117	267.506	367.361	409.462	341.639	43.3798	306.596	188.087	91.9808	512.774	166.268	351.601	160.515	260.410	335.464	344.804	341.926	340.255	8192	-8191	8192	8192	254	
77750.930	1	1	0	0	215.587	217.205	191.849	2.35676	175.084	97.9439	22.9651	271.514	362.726	396.731	342.721	44.1442	304.543	193.769	89.3413	504.87	165.562	354.085	161.589	355.830	339.001	338.321	343.592	340.021	8192	-8191	8192	8192	254	
77750.977	1	1	0	0	224.271	217.246	219.143	2.68752	178.045	99.0438	26.2822	276.796	370.822	388.5	358.548	42.0769	307.149	196.038	94.2356	523.966	167.272	352.804	161.038	138.252	339.516	344.679	336.975	339.249	8192	-8191	8192	8192	254	
77751.031	1	1	0	0	226.724	216.229	200.999	2.83722	195.322	88.7322	28.6926	270.517	367.553	398.115	349.663	40.976	315.25	188.832	90.5385	521.062	168.076	349.148	162.299	1.710	341.511	338.309	342.725	336.840	8192	-8191	8192	8192	254	
77751.078	1	1	0	0	231.825	213.428	213.069	1.28157	179.382	91.4878	33.1422	291.245	363.053	390.13	361.327	43.0913	301.197	188.808	90.3413	529.202	163.303	348.092	163.394	274.698	336.729	345.746	341.773	337.377	8192	-8191	8192	8192	254	
77751.125	1	1	0	0	224.164	225.724	213.016	3.48196	191.091	94.1599	35.5071	296.097	366.168	397.433	349.832	46.8606	306.048	191.74	90.3269	541.49	164.213	353.587	165.315	342.014	341.066	338.821	342.574	339.749	8192	-8191	8192	8192	254	
77751.195	1	1	0	0	201.809	208.288	212.329	5.53032	183.695	91.2321	32.0788	268.891	353.553	393.034	350.812	45.1827	308.899	186.409	93.3894	525.106	165.757	353.325	162.351	62.979	341.528	346.970	335.093	339.547	8192	-8191	8192	8192	254	
77751.242	1	1	0	0	224.709	224.928	206.584	3.57079	177.048	83.8447	21.753	282.363	363.034	401.413	357.548	39.9567	309.495	180.635	93.5433	521.745	160.589	350.550	160.644	324.094	337.982	342.214	356.927	338.318	8192	-8191	8192	8192	254	
77751.297	1	1	0	0	215.977	224.704	211.561	6.73713	188.451	100.366	36.3696	290.899	371.322	404.202	349.587	46.9135	306.558	192.577	92.7356	544.428	165.224	356.545	163.138	7.805	333.317	342.703	324.857	341.161	8192	-8191	8192	8192	254	
77751.344	1	1	0	0	228.579	214.883	204.047	1.82687	190.683	78.9226	29.6208	289.16	373.212	394.188	347.212	44.1683	307.659	187.274	91.899	540.178	160.279	354.121	162.850	79.540	337.608	348.091	344.569	339.630	8192	-8191	8192	8192	254	
77751.344	1	1	0	0	213.844	230.1	190.058	4.16178	185.393	93.4407	33.3272	296.786	364.462	396.822	342.832	44.3846	309.236	185.764	102.567	531.274	160.439	349.424	164.526	193.981	339.873	338.026	343.376	338.895	8192	-8191	8192	8192	254	
77751.391	1	1	0	0	221.55	237.586	190.533	5.42181	190.518	98.4801	39.9192	289.517	367.389	413.88	350.202	44.0625	310.995	200.389	96.0144	540.183	164.373	353.226	160.791	268.183	339.257	339.190	349.687	338.239	8192	-8191	8192	8192	254	
77751.438	1	1	0	0	217.24	214.898	192.444	2.3018	175.574	86.2971	26.5768	301.29	368.822	399.12	354	47.6635	309.202	189.966	98.4038	558.322	163.434	346.748	162.667	159.107	336.025	348.203	342.390	340.565	8192	-8191	8192	8192	254	
77751.484	1	1	0	0	228.966	200.94	201.686	1.53871	199.139	100.158	30.3237	292.709	368.149	390.337	350.514	45.1202	320.25	190.938	95.4087	539.957	165.675	351.074	165.621	203.836	340.871	348.677	350.349	339.560	8192	-8191	8192	8192	254	
77751.555	1	1	0	0	231.194	230.489	189.247	1.27935	177.963	83.5664	33.7456	295.794	377.399	408.524	345.365	44.2356	317.462	189.683	97.7067	562.452	166.492	355.147	163.427	160.362	336.521	338.028	354.521	337.990	8192	-8191	8192	8192	254	
77751.602	1	1	0	0	210.725	222.784	220.305	7.23414	173.667	99.11	29.3569	290.632	365.452	404.716	363.644	41.3413	310.38	196.062	95.2212	553.034	165.381	350.597	168.296	244.674	336.802	344.238	342.397	336.160	8192	-8191	8192	8192	254	
77751.656	1	1	0	0	213.292	233.793	205.663	5.17178	174.644	118.264	31.6889	280.038	356.25	417.091	347.885	43.1827	312.019	197.976	95.0721	535.048	164.279	354.499	158.078	265.840	341.410	343.626	341.988	339.065	8192	-8191	8192	8192	254	
77751.703	1	1	0	0	217.414	219.387	187.955	2.86696	169.975	88.9638	32.6114	294.887	359.399	411.49	351.274	44.6635	313.269	195.822	93.5192	556.183	162.889	353.253	161.059	4.529	337.643	339.238	345.681	339.337	8192	-8191	8192	8192	254	
77751.750	1	1	6	0	235.343	236.894	200.617	3.0912	181.458	91.7285	29.2122	306.273	379.269	410.346	353.548	43.0337	310.231	185.385	92.3077	544.668	158.704	351.866	161.640	274.159	338.136	350.026	341.458	339.014	8192	-8191	8192	8192	254	
77751.797	1	1	0	0	209.333	230.154	202.655	2.09918	191.719	91.4303	29.9378	306.611	355.837	406.125	362.409	45.4808	311.337	193.486	94.9183	544.38	164.889	349.935	162.633	288.077	340.538	343.303	322.357	334.691	8192	-8191	8192	8192	254	
77751.844	1	1	0	0	223.688	230.588	232.774	1.8129	170.956	92.9584	31.6395	280.673	361.514	421.5	362.668	47.3558	309.538	183.596	91.9423	543.221	163.450	351.990	163.209	339.581	340.381	344.820	340.273	338.243	8192	-8191	8192	8192	254	
77751.891	1	1	0	0	213.601	214.865	208.194	3.98292	187.794	91.019	29.4392	293.3	367.115	405.832	358.322	40.6587	306.361	187.837	90.149	548.938	166.334	354.813	163.249	287.133	339.887	339.769	345.927	338.865	8192	-8191	8192	8192	254	
77751.969	1	1	0	0	218.949	227.462	203.048	7.1161	188.833	96.2069	30.3321	295.578	362.562	392.755	340.673	43.6538	306.736	184.447	86.7404	551.303	162.171	350.063	160.831	288.107	339.513	342.138	348.147	341.200	8192	-8191	8192	8192	254	
77752.016	1	1	0	0	216.402	203.472	196.238	7.2522	187.137	95.3827	19.8716	290.987	363.216	398.389	356.861	42.3798	315.192	197.654	92.2163	548.091	162.737	352.504	160.691	175.072	341.795	340.826	341.228	340.607	8192	-8191	8192	8192	254	
77752.062	1	1	0	0	219.069	218.148	185.707	5.39244	194.298	84.4943	28.5577	286.829	370.019	407.38	350.207	52.0721	324.793	199.923	99.75	549.01	164.252	355.115	159.833	339.347	334.232	341.430	342.215	336.890	8192	-8191	8192	8192	254	
77752.109	1	1	0	0	226.758	232.733	227.672	7.0075	196.714	98.2311	24.0552	290.655	397.644	432.707	407.034	90.3125	373.159	251.212	172.327	624.615	160.238	353.768	165.659	102.988	341.642	344.118	348.392	333.718	8192	-8191	8192	8192	254	
77752.109	1	1	0	0	233.66	232.666	203.256	17.6667	193.257	95.4181	29.758	283.445	477.38	510.038	466.755	154.245	427.308	328.962	220.26	684.885	159.308	351.929	167.088	126.613	340.722	338.338	327.474	337.426	8192	-8191	8192	8192	254	
77752.156	1	1	0	0	212.908	222.506	201.038	12.6507	181.279	84.4484	30.7062	299.297	520.5	555.471	512.981	200.913	469.125	355.716	236.678	694.942	160.992	357.390	161.095	321.699	339.896	344.001	333.032	339.740	8192	-8191	8192	8192	254	
77752.203	1	1	0	0	209.126	212.27	224.761	8.05822	188.212	103.529	39.7818	304.376	491.856	523.75	460.827	143.976	397.913	270.221	169.769	631.615	161.014	353.245	158.958	184.522	335.118	343.365	348.640	336.922	8192	-8191	8192	8192	254	
77752.250	1	1	0	0	202.004	217.118	180.41	8.56184	181.733	84.3523	34.0359	293.473	417.048	451.149	408.596	101.812	358.048	237.471	146.995	592.885	163.225	355.028	163.742	211.786	338.275	340.130	351.214	337.575	8192	-8191	8192	8192	254	
77752.328	1	1	0	0	223.519	217.843	205.043	7.46303	172.489	99.2864	33.0075	292.295	406.312	441.654	390.361	82.5577	336.255	228.192	119.51	577.702	160.426	350.709	163.726	14.909	339.835	344.485	5.670	337.641	8192	-8191	8192	8192	254	
77752.375	1	1	0	0	209.717	225.573	199.17	4.2888	182.129	90.1018	23.6537	271.328	395.947	435.654	371.659	69.125	331.591	205.038	111.303	555.865	164.067	357.002	164.842	277.517	336.053	340.879	2.851	339.705	8192	-8191	8192	8192	254	
77752.422	1	1	0	0	225.96	225.208	203.947	4.09225	187.755	86.1791	22.0091	277.76	381.644	435.918	363.74	57.7548	320.688	208.587	105.798	554.106	163.600	351.717	159.387	104.524	336.728	339.691	348.924	336.434	8192	-8191	8192	8192	254	
77752.469	1	1	0	0	222.336	218.268	183.358	6.30338	189.791	102.55	31.0749	292.161	379.812	412.26	360.481	56.8462	327.548	201.74	113.351	559.611	161.486	351.910	164.339	273.499	338.447	347.982	332.409	337.485	8192	-8191	8192	8192	254	
77752.516	1	1	0	0	224.925	226.029	211.935	6.60336	188.915	91.6656	28.5419	305.911	386.106	420.553	372.26	63.1923	336.88	212.745	125.096	595.913	163.778	352.492	164.794	264.303	335.642	344.942	355.575	339.026	8192	-8191	8192	8192	254	
77752.562	1	1	0	0	215.491	202.862	196.019	8.39394	192.1	90.3564	32.8933	281.938	409.212	451.019	406.029	98.4952	381.115	247.5	161.755	623.668	161.857	352.457	162.629	44.528	338.763	342.172	350.907	339.402	8192	-8191	8192	8192	254	
77752.641	1	1	0	0	205.977	213.091	211.729	5.27675	181.065	84.0707	30.5169	275.042	438.303	483	454.707	147.269	414.904	305.885	245.721	722.26	162.455	355.788	162.441	280.050	342.013	346.057	3.499	337.096	8192	-8191	8192	8192	254	
77752.688	1	1	0	0	214.727	214.078	216.733	8.59415	169.36	112.205	18.3494	294.388	544.418	600.25	582.856	291.192	578.534	469.115	381.952	851.159	166.479	350.457	160.297	234.034	337.637	346.368	332.850	338.761	8192	-8191	8192	8192	254	
77752.734	1	1	0	0	215.936	246.692	214.086	4.97046	184.081	105.728	24.3261	315.003	673.139	732.673	681.51	377.293	638.034	553.668	456.812	925.082	165.795	351.686	166.335	115.657	335.574	344.337	347.216	336.886	8192	-8191	8192	8192	254	
77752.781	1	1	0	0	219.412	216.931	206.682	18.8876	197.49	102.644	25.6235	309.927	739.827	791.115	752.144	444.284	741.433	611.135	522.486	972.76	161.349	347.147	160.607	7.757	342.727	334.718	339.899	336.899	8192	-8191	8192	8192	254	
77752.828	1	1	0	0	214.467	212.765	202.376	11.3258	201.081	78.508	32.7747	305.275	801.091	838.654	793.159	502.702	782.692	654.019	545.207	1001.99	162.133	355.809	167.003	347.773	335.842	342.382	347.989	335.110	8192	-8191	8192	8192	254	
77752.875	1	1	0	0	192.811	237.306	212.216	14.6427	191.045	90.2638	26.3532	319.08	805.048	868.558	810.077	505.971	761.317	642.846	574.471	1000.02	164.390	358.659	167.579	3.297	338.135	341.090	348.670	336.409	8192	-8191	8192	8192	254	
77752.875	1	1	0	0	221.44	249.276	202.92	18.2864	186.18	82.9017	39.5614	309.497	816.303	867.154	810.062	495.615	778.63	634.899	552.726	1002.81	159.029	352.684	159.818	16.748	339.309	338.866	343.558	337.736	8192	-8191	8192	8192	254	
77752.922	1	1	0	0	207.645	214.663	207.332	3.37624	170.654	79.849	20.5199	263.454	813.279	858.774	793.952	498.332	725.74	581.611	486.697	847.87	167.477	348.773	163.381	24.314	339.597	353.062	299.352	327.660	8192	-8191	8192	8192	254	
77752.969	1	1	0	0	170.52	160.657	122.182	5.5928	107.525	48.2546	4.65521	70.177	648.942	641.062	583.014	345.288	471.5	326.221	215.341	249.231	172.580	350.222	162.301	246.624	346.206	348.139	305.490	343.206	8192	-8191	8192	8192	254	
77753.023	1	1	0	0	17.3318	3.38854	0.785046	8.52463	4.53705	7.71553	6.03049	12.9315	146.716	125.986	118.014	114.837	110.707	116.707	159.798	438.721	175.717	344.392	344.388	54.275	95.368	309.164	290.590	108.417	8192	-8191	8192	8192	254	
77753.094	1	1	0	65536	100.592	319.848	133.459	244.856	71.6816	28.5693	89.1101	174.448	2721.33	14612.4	31203	21835	15812.3	17445.3	20530.7	24393.5	108.943	97.516	127.705	286.878	353.298	194.815	70.369	55.067	8192	-8191	8192	8192	254	
77753.141	1	1	0	65536	35.0711	102.865	90.0391	11.4947	104.483	66.0133	61.9893	28.0221	23456.6	22069.3	21652.5	22216.4	23212.6	24827.8	22905.2	20835.5	357.243	14.053	353.116	259.938	196.177	113.842	318.158	286.795	8192	-8191	8192	8192	254	
77753.188	1	1	0	0	58.9854	121.01	24.1468	19.0457	12.761	37.0047	8.47402	10.0033	14170.1	6303.99	1004.94	903.812	1006.48	1128.61	1265.3	1310.99	208.850	300.993	76.210	334.212	348.799	52.285	108.424	289.704	8192	-8191	8192	8192	254	
77753.234	1	1	0	0	15.1666	29.2554	32.608	20.6092	19.6818	11.3618	31.3666	21.0796	1361.17	1455.21	1476.69	1508.44	1554.85	1561.82	1560.52	1581	127.607	25.745	99.723	278.079	14.797	84.956	283.589	72.408	8192	-8191	8192	8192	254	
77753.281	1	1	0	0	15.2218	33.0883	21.614	20.6265	17.6436	47.3673	5.47816	25.8421	1594.87	1619.62	1628.9	1653.43	1689.96	1732.58	1796.44	1806.03	143.436	101.282	320.714	197.705	196.677	181.061	150.928	303.132	8192	-8191	8192	8192	254	
77753.336	1	1	0	0	40.0511	11.7148	27.9945	18.9739	60.8822	18.4178	29.3385	51.1191	1828.17	1828.51	1801.51	1792.45	1899.12	1985.75	2118.83	2242.67	272.630	348.092	86.585	141.059	319.482	214.477	101.971	305.225	8192	-8191	8192	8192	254	
77753.406	1	1	0	0	24.6169	52.4122	9.132	34.6776	17.0792	26.8261	37.5849	39.5289	2070.47	1973.13	2136.8	1951.28	1910.73	1892.28	1933.46	2025.3	311.418	145.744	299.711	339.700	190.611	69.148	345.289	177.683	8192	-8191	8192	8192	254	
77753.453	1	1	0	0	26.2752	19.2539	10.0831	27.089	51.061	54.9553	14.3297	46.0968	2103.57	2188.94	2256.73	2318.96	3011.75	8650.98	9457.78	9941.06	348.385	106.195	77.479	257.268	95.922	86.701	305.140	88.804	8192	-8191	8192	8192	254	
77753.500	1	1	0	0	72.2586	51.3771	32.6401	29.6743	9.55492	16.7594	57.6589	44.1872	10437.2	10573.5	10637.4	10720.5	10822	10794.5	10804.4	10899.9	155.215	13.310	343.548	92.828	335.177	162.159	14.713	215.250	8192	-8191	8192	8192	254	
77753.547	1	1	0	0	84.9676	50.8962	7.8007	10.2629	9.99951	64.6696	98.4439	49.7066	10929	10998.8	11039.7	11145.3	11230.4	11292.6	11432.5	11583.4	17.494	202.897	274.293	82.317	3.611	115.823	301.911	88.790	8192	-8191	8192	8192	254	
77753.594	1	1	0	0	44.4292	53.1896	55.1015	25.8248	58.6494	43.3886	62.5483	21.1523	11677.1	11756.4	11810.4	11878.5	11850.9	11726.5	11700.2	11591.3	359.466	299.633	264.940	130.948	43.787	145.772	216.837	45.298	8192	-8191	8192	8192	254	
77753.648	1	1	0	0	59.5035	72.9144	128.068	88.1857	118.357	5.11468	14.966	141.355	11545.2	11428.6	11205.1	11203.4	11221.8	11131.6	11167.1	11148.6	81.054	123.398	182.264	256.874	247.343	120.351	214.334	85.042	8192	-8191	8192	8192	254	
77753.648	1	1	0	0	73.1133	36.3371	51.0923	33.3312	32.3506	43.6786	52.7884	20.862	11209.7	11354.9	11467.4	11614.6	11665.9	11773.8	11892	11921.7	239.168	102.568	262.542	66.580	250.030	51.199	151.821	105.249	8192	-8191	8192	8192	254	
77753.695	1	1	0	0	72.9581	107.287	17.2736	25.0039	21.0599	45.6727	38.4955	41.0886	11897.9	11848.7	11716.1	11636.6	11638.9	11531.1	11485.1	11392.2	268.102	272.124	111.191	16.469	168.155	138.219	170.580	105.376	8192	-8191	8192	8192	254	
77753.742	1	1	0	0	50.8218	44.9781	48.4767	24.4984	74.4156	49.9603	58.1938	36.3149	11414.8	11376	11339.6	11461.6	11502.8	11549.6	11667.3	11816.2	186.699	283.019	275.006	2.834	127.449	69.691	93.761	198.827	8192	-8191	8192	8192	254	
77753.789	1	1	0	0	19.3701	27.4406	44.2907	107.279	35.5438	69.7358	87.6383	2.87767	11965.6	12147.3	12306.3	12532.4	12731.3	13109.5	13412	13561.6	175.932	1.286	328.577	219.489	79.435	308.965	355.666	168.993	8192	-8191	8192	8192	254	
77753.859	1	1	0	0	37.6348	50.6221	68.6014	91.3024	48.7499	26.5841	11.2696	5.92452	14224.3	14858.8	15836.6	8806.76	3141.77	1120.1	571.029	470.322	58.395	140.495	121.608	263.151	298.027	66.754	144.570	150.799	8192	-8191	8192	8192	254	
77753.906	1	1	0	0	10.9425	12.7868	12.8589	5.492	14.0884	11.4495	14.6144	4.00389	481.745	500.928	487.99	497.938	510.317	536.029	543.654	572.673	264.083	148.892	263.898	160.064	28.338	156.088	79.148	119.909	8192	-8191	8192	8192	254	
77753.953	1	1	0	0	7.56266	10.8683	16.94	17.349	11.801	11.4929	23.8431	4.30299	579.072	592.356	606.481	578.188	566.639	568.168	544.639	496.798	113.626	258.989	239.772	198.992	258.136	254.602	277.260	180.632	8192	-8191	8192	8192	254	
77754.008	1	1	0	0	8.93464	8.82233	13.8946	2.60146	20.4784	11.9703	15.9822	2.91228	462.928	417.894	369.26	328.567	285.433	246.442	196.577	182.312	4.741	123.419	301.954	202.426	58.252	245.642	260.072	309.596	8192	-8191	8192	8192	254	
77754.055	1	1	0	0	1.90478	2.67763	8.31252	6.05119	8.12327	7.19201	2.27826	9.66945	159.236	155.178	148.346	138.712	130.26	129.894	124.452	126.505	149.922	343.761	147.583	341.514	44.277	73.343	86.619	24.644	8192	-8191	8192	8192	254	
77754.102	1	1	0	0	3.99779	3.12113	2.95052	8.82343	3.10628	8.30372	3.46336	6.4395	133.486	124.505	127.764	134.62	136.438	129.365	130.793	128.457	180.264	57.362	284.412	124.541	120.530	303.532	194.693	3.955	8192	-8191	8192	8192	254	
77754.148	1	1	0	0	6.43956	4.55599	10.6243	2.50707	1.67914	11.5318	6.04067	7.19407	135.476	133.731	134.433	130.99	141.712	134.846	129.067	133.125	348.192	341.473	274.755	264.826	255.436	26.944	267.173	178.556	8192	-8191	8192	8192	254	
77754.195	1	1	0	0	5.73949	7.39434	9.93775	10.6531	7.37053	8.32753	5.16141	0.717749	128.284	130.24	130.125	135.587	132.471	136.163	129.962	132.25	56.506	305.487	304.424	277.462	38.706	131.813	271.625	330.668	8192	-8191	8192	8192	254	
77754.266	1	1	0	0	4.92603	2.2523	2.69848	10.2989	2.53882	17.443	3.4096	1.92893	131.101	131.216	137.308	130.779	144.812	133.764	147.24	144.577	123.722	166.203	17.546	188.355	167.802	24.391	332.349	41.823	8192	-8191	8192	8192	254	
77754.320	1	1	0	0	3.34546	10.6362	6.7486	11.2292	2.17667	13.36	11.1513	28.0055	148.312	162.918	183.024	194.442	210.784	210.659	214.712	301.49	59.174	351.704	189.334	60.279	320.660	304.728	30.151	315.192	8192	-8191	8192	8192	254	
77754.367	1	1	0	0	45.0625	46.2841	53.3365	15.9522	70.9246	38.4187	7.01277	79.1073	374.894	552.091	631.163	532.716	616.356	584.409	567.755	694.351	153.881	350.041	196.433	7.440	334.410	343.305	24.189	336.439	8192	-8191	8192	8192	254	
77754.414	1	1	0	0	56.4983	69.1359	62.2495	10.9355	66.0896	35.3493	17.5757	87.1664	641.062	628.192	627.851	544.635	642.495	594.072	567.928	701.058	174.426	8.181	165.473	320.211	341.625	349.064	348.132	332.977	8192	-8191	8192	8192	254	
77754.414	1	1	0	0	75.1306	59.3023	58.9981	4.1118	59.598	14.2697	8.36356	83.8097	637.279	658.077	625.567	548.279	630.827	591.606	538.837	696.635	172.301	2.560	174.024	209.329	347.816	352.061	317.736	335.820	8192	-8191	8192	8192	254	
77754.461	1	1	0	0	56.887	73.1526	84.3084	24.0958	47.0277	36.4953	6.18091	72.9476	617.375	625.202	611.942	531.361	598.938	569.125	531.913	674.303	176.464	332.975	149.091	11.132	345.637	332.541	105.991	339.206	8192	-8191	8192	8192	254	
77754.508	1	1	0	0	58.4885	62.2919	44.409	26.3695	50.5432	48.6323	17.5193	117.796	604.861	619.894	579.62	506.966	577.543	537.75	500.183	644.812	167.643	14.351	165.227	177.652	0.830	3.694	69.210	342.400	8192	-8191	8192	8192	254	
77754.555	1	1	0	0	68.0926	67.0216	52.7146	12.008	55.4069	41.445	7.0472	98.9578	590.101	582.962	558.51	467.413	541.947	489.649	471.337	619.048	179.459	12.123	166.434	51.448	357.484	345.294	281.155	336.828	8192	-8191	8192	8192	254	
77754.633	1	1	0	0	61.0208	67.8284	46.2896	17.6692	63.4393	18.3863	25.6173	91.3639	531.38	532.692	499.053	404.365	476.087	431.827	381.111	533.159	177.268	11.021	172.334	176.738	339.305	24.389	326.884	347.123	8192	-8191	8192	8192	254	
77754.680	1	1	0	0	77.4104	74.037	55.0937	5.47675	71.0325	34.8578	12.3486	104.539	462.596	446.683	427.399	327.635	409.413	348.572	305.567	449.774	173.148	352.121	179.481	168.675	339.350	332.755	295.688	351.494	8192	-8191	8192	8192	254	
77754.727	1	1	0	0	75.126	65.9754	85.9378	9.53468	72.1051	27.4097	15.1333	87.5622	359.202	380.279	350.514	234.288	316.894	265.351	232.716	369.082	174.835	343.639	157.945	320.124	341.864	356.672	320.935	347.703	8192	-8191	8192	8192	254	
77754.773	1	1	0	0	45.5262	69.6143	53.5976	4.21789	45.5699	25.9758	12.2386	76.151	292.067	301.216	272.562	175.798	235.865	210.418	172.981	305.346	169.027	350.809	183.347	112.100	334.064	355.719	21.572	346.740	8192	-8191	8192	8192	254	
77754.820	1	1	0	0	69.8617	54.7575	44.839	9.62353	57.588	20.0597	10.6688	86.584	238.264	229.13	208.188	120.952	180.476	144.144	109.404	247.673	176.438	355.096	164.978	132.180	345.301	9.348	12.928	344.254	8192	-8191	8192	8192	254	
77754.867	1	1	0	0	67.6517	64.7719	58.1416	4.0541	48.8178	23.1623	9.12332	83.9195	177.769	190.591	169.005	81.1923	157.678	123.168	87.5288	219.221	170.279	0.817	170.896	217.189	338.960	350.637	341.489	346.961	8192	-8191	8192	8192	254	
77754.938	1	1	0	0	62.5577	69.9059	52.2168	2.25548	43.7277	27.4246	9.02078	86.5677	160.385	162.077	140.678	62.0913	137.663	108.49	77.2452	204.865	171.196	4.717	163.112	208.539	350.300	343.374	44.393	346.306	8192	-8191	8192	8192	254	
77754.992	1	1	0	0	64.541	55.6594	40.0985	4.49555	59.495	26.7734	8.38973	86.1151	146.553	147.779	135.5	57.226	134.514	104.659	74.0048	204.745	168.941	352.765	167.065	167.437	341.831	339.419	330.271	347.643	8192	-8191	8192	8192	254	
77755.039	1	1	0	0	58.049	54.756	57.0188	1.10886	45.6434	27.1569	12.8402	85.6225	142.673	159.615	144.668	58.9567	126.846	102.63	77.8606	216.798	166.205	352.200	173.198	122.237	344.971	336.458	345.499	340.869	8192	-8191	8192	8192	254	
77755.086	1	1	0	0	56.4754	51.0229	50.7906	5.30918	52.2332	25.1846	5.93644	75.5492	151.476	156.087	137.111	64.4712	140.995	100.812	84.0481	210.111	163.276	359.881	168.595	242.261	342.083	0.538	344.861	347.713	8192	-8191	8192	8192	254	
77755.133	1	1	0	0	55.412	62.704	59.7816	5.18845	61.6066	23.4571	10.2158	79.1901	157.966	168.096	148.082	72.0337	141.096	114.014	81.2212	206.938	168.712	6.441	172.055	257.933	337.923	355.332	345.707	342.392	8192	-8191	8192	8192	254	
77755.180	1	1	0	0	57.1655	58.6557	48.1167	7.91397	61.4527	27.2847	12.9888	93.5409	159.082	165.476	158.769	78.1923	158.716	119.173	90.9087	234.981	175.305	352.288	159.813	140.614	347.422	344.639	338.941	349.382	8192	-8191	8192	8192	254	
77755.180	1	1	0	0	67.9745	48.3316	56.0815	2.58719	62.3367	26.7414	20.1784	84.0666	170.952	182.159	171.812	91.5337	170.63	130.894	102.466	233.37	174.657	357.338	166.931	53.902	331.350	351.801	3.807	347.017	8192	-8191	8192	8192	254	
77755.227	1	1	0	0	69.7697	56.8796	62.0123	4.03088	57.0036	29.5048	14.6044	85.2837	186.053	200.865	182.26	98.75	172.413	140.803	115.087	243.851	168.862	9.205	171.735	78.831	349.909	339.275	334.348	343.970	8192	-8191	8192	8192	254	
77755.305	1	1	0	0	60.8985	55.2352	58.9102	0.386114	53.9419	24.4388	13.9635	83.3353	186.673	199.255	186.221	103.418	181.87	143.25	112.298	245.591	165.766	3.815	166.809	60.822	343.299	4.897	348.096	341.774	8192	-8191	8192	8192	254	
77755.352	1	1	0	0	65.163	47.2794	48.6248	2.48594	49.4833	24.4253	14.5951	100.545	190.769	182.885	170.938	86.8173	154.779	115.673	90.0144	207.514	165.453	12.172	169.407	133.590	341.483	358.819	324.315	349.187	8192	-8191	8192	8192	254	
77755.398	1	1	0	0	67.4828	59.1941	46.1436	1.07677	51.6584	21.8091	11.1152	74.854	144.519	143.442	121.529	43.8558	119.115	85.4423	58.4808	180.971	166.066	1.149	177.887	189.120	345.446	359.613	17.562	339.408	8192	-8191	8192	8192	254	
77755.445	1	1	0	0	58.3147	49.9095	55.8271	2.20815	53.5426	22.4256	8.55241	86.5225	128.341	139.837	126.072	42.9904	113.197	77.774	61.9663	187.986	178.597	1.627	170.396	28.893	330.903	340.720	355.807	345.790	8192	-8191	8192	8192	254	
77755.492	1	1	0	0	60.5012	47.3297	56.1175	6.3951	49.5801	32.7971	8.75433	79.1475	126.221	131.163	121.851	44.3125	114.221	89.9471	57.6779	184.082	165.371	357.187	166.203	75.362	345.312	3.236	10.355	347.174	8192	-8191	8192	8192	254	
77755.539	1	1	0	0	59.9824	57.3319	51.7046	5.39813	46.7658	25.9592	9.71753	83.1549	126.625	140.659	124.308	43.8606	107.856	84.524	54.5577	189.192	170.116	9.514	169.549	144.524	353.706	342.907	336.709	339.700	8192	-8191	8192	8192	254	
77755.586	1	1	0	0	51.5949	59.9758	61.7914	2.68616	42.4047	32.9144	9.28928	89.3392	125.788	136.514	128.111	40.2644	110.346	85.9712	53.3125	188.918	170.472	6.670	163.027	128.376	335.185	336.106	17.900	341.482	8192	-8191	8192	8192	254	
77755.641	1	1	0	0	51.5922	61.664	48.3096	5.21223	49.1241	22.3155	10.7964	87.5527	118.038	126.962	121.49	40.2356	113.106	85.7452	57.2644	192.962	176.798	358.671	168.453	330.405	349.046	320.392	4.006	339.677	8192	-8191	8192	8192	254	
77755.688	1	1	0	0	53.5895	51.7688	54.3265	1.36298	46.099	27.3733	11.562	75.5719	127.404	130.322	119.606	40.3606	115.644	83.8029	58.2452	182.827	169.504	356.840	165.330	357.742	350.784	350.933	7.090	350.253	8192	-8191	8192	8192	254	
77755.734	1	1	0	0	49.5506	60.2766	55.6869	1.1836	44.3911	24.4214	5.3526	79.5016	121.942	131.764	118.404	41.6106	111.952	84.4471	52.5817	183.168	170.611	4.572	166.375	96.209	342.421	328.611	10.821	341.789	8192	-8191	8192	8192	254	
77755.805	1	1	0	0	59.2114	53.8081	59.2779	4.89313	47.1058	26.9271	11.1864	89.2655	132.053	128.827	120.846	39.9183	114.928	81.3221	53.7356	184.76	167.740	6.634	165.733	271.774	339.918	333.412	0.898	340.430	8192	-8191	8192	8192	254	
77755.852	1	1	0	0	52.5581	57.2603	53.9742	4.49559	49.3556	21.0221	10.3004	88.0765	121.726	131.894	118.688	39.9087	114.87	78.5865	55.649	187.601	178.561	2.247	164.108	57.874	348.419	4.164	307.118	340.510	8192	-8191	8192	8192	254	
77755.898	1	1	0	0	60.871	51.1866	52.2667	5.35287	50.0808	26.1526	5.37878	72.688	127.524	128.995	118.322	43.8365	118.216	89.3894	53.4663	179.587	160.623	359.113	167.875	98.451	342.183	337.919	348.330	346.995	8192	-8191	8192	8192	254	
77755.953	1	1	0	0	56.6457	63.0722	57.3378	3.419	48.0214	26.8701	11.2182	73.4236	122.913	137.837	121.188	40.6154	113.846	80.274	57.3606	184.394	177.946	4.279	159.834	8.878	336.031	346.262	312.652	335.906	8192	-8191	8192	8192	254	
77755.945	1	1	0	0	67.5097	55.5549	51.0717	5.68813	39.6613	29.6009	8.56089	71.5837	132.74	136.812	125.058	41.5481	116.779	83.4615	61.3221	172.942	176.142	351.037	171.217	93.101	346.131	359.221	350.783	340.646	8192	-8191	8192	8192	254	
77756.000	1	1	0	0	55.3535	62.4022	54.4868	4.27268	45.704	25.2766	10.7118	79.2039	128.808	136.865	121.01	45.5625	113.62	82.4856	59.774	182.976	171.158	355.758	171.115	203.597	336.605	342.363	355.316	337.180	8192	-8191	8192	8192	254	
77756.047	1	1	0	0	53.355	68.8646	49.7492	2.01828	53.442	31.9626	5.14341	93.6756	122.947	139.918	121.284	41.9808	115.933	87.5481	53.7212	187.841	168.567	0.690	169.754	323.956	347.216	342.882	21.303	344.802	8192	-8191	8192	8192	254	
77756.094	1	1	0	0	56.3028	54.1759	42.5672	3.34212	51.3911	18.4258	6.98647	94.8274	127.279	130.038	117.442	42.9856	110.808	80.3846	60.875	193.197	159.526	7.830	173.414	160.748	346.254	340.508	347.446	340.959	8192	-8191	8192	8192	254	
77756.164	1	1	0	0	61.0435	47.4726	54.5831	2.91408	50.8692	19.6001	9.38241	81.4775	127.87	129.495	121.288	43.0288	115.683	84.0817	56.4663	182.25	162.673	355.528	170.532	6.569	338.390	350.673	333.209	344.825	8192	-8191	8192	8192	254	
77756.211	1	1	0	0	53.703	54.0593	58.519	1.08496	57.4966	23.4157	8.1019	85.7007	123.913	131.087	122.288	39.7356	112.668	82.6971	55.4567	184.106	169.580	359.747	166.876	195.188	342.845	335.627	327.653	339.733	8192	-8191	8192	8192	254	
77756.266	1	1	0	0	51.1307	49.9068	52.9293	1.68158	48.1952	27.9544	10.7984	85.2375	120.846	133.832	122.197	42.1683	113.885	79.8702	55.149	185.625	169.374	8.393	164.001	85.631	345.988	340.214	2.929	350.204	8192	-8191	8192	8192	254	
77756.312	1	1	0	0	59.2603	65.7031	58.424	2.80599	51.2214	24.3241	11.2042	82.56	122.375	132.524	124.529	38.2981	117.087	82.5192	56.6827	183.875	166.622	354.497	167.724	138.607	347.529	353.316	336.590	345.740	8192	-8191	8192	8192	254	
77756.359	1	1	0	0	52.8599	56.1791	64.0203	4.19782	53.8297	20.6564	9.80629	77.7205	123.255	130.115	128.356	40.5865	107.87	79.7163	54.2356	174.505	169.383	3.855	174.111	193.261	340.953	356.004	323.242	344.748	8192	-8191	8192	8192	254	
77756.406	1	1	0	0	59.8714	51.6833	53.4178	2.24217	54.4576	26.3342	7.59484	87.79	123.837	134.683	120.288	39.9231	118.832	78.3558	52.3269	187.596	168.879	356.655	169.424	213.334	343.563	335.993	351.976	342.170	8192	-8191	8192	8192	254	
77756.477	1	1	0	0	59.2241	63.927	54.0328	2.76672	42.8472	27.9894	9.25642	81.2661	126.082	128.125	119.125	40.7308	105.577	87.524	57.3558	180.923	172.356	357.656	161.880	99.263	345.831	359.710	354.101	349.744	8192	-8191	8192	8192	254	
77756.523	1	1	0	0	58.2808	60.9113	55.2689	3.98776	45.1441	27.79	4.53915	91.5237	134.74	136.077	128.327	43.0625	113.659	82.3702	53.9663	189.25	170.360	359.522	163.819	97.417	356.944	351.999	356.120	337.462	8192	-8191	8192	8192	254	
77756.570	1	1	0	0	53.1656	58.5967	49.5697	1.56079	51.3067	21.9331	8.23376	74.6513	126.668	132.889	118.038	41.5625	115.466	80.7788	53.1106	180.601	168.435	355.798	163.400	281.272	341.622	338.833	18.366	341.417	8192	-8191	8192	8192	254	
77756.617	1	1	0	0	56.7555	52.4617	52.0077	2.38345	48.3637	29.8318	10.4808	98.6659	120.702	127.942	119.639	41.6923	111.5	80.6923	56.774	193.361	175.581	357.710	167.602	179.045	339.522	354.389	357.571	344.368	8192	-8191	8192	8192	254	
77756.672	1	1	0	0	56.4268	63.6541	55.1059	2.58062	47.7417	23.1376	8.76979	75.7765	124.779	132.865	121.163	43.8317	111.293	82.0577	56.4231	176.341	170.350	353.320	162.166	142.124	346.851	353.784	1.240	343.902	8192	-8191	8192	8192	254	
77756.719	1	1	0	0	56.5633	56.4003	54.7844	5.8541	54.4233	24.6748	7.69056	84.1341	130.74	131.447	123.351	40.8077	114.399	83.4423	57.851	185.106	162.931	10.165	172.817	60.757	341.522	0.101	323.840	347.576	8192	-8191	8192	8192	254	
77756.719	1	1	0	0	61.7877	48.2113	53.4326	3.70162	53.6295	30.8339	11.0057	69.7122	126.067	126.216	120.418	40.8702	108.76	83.4567	61.5096	175.048	173.118	357.836	162.019	56.354	344.274	348.133	343.109	343.878	8192	-8191	8192	8192	254	
77756.766	1	1	0	0	51.9185	63.7131	47.0555	4.66539	50.4916	33.4293	10.5937	92.8591	120.75	138.279	122.279	40.5481	113.231	85.0048	60.6202	186.433	164.515	8.629	163.424	291.710	347.080	342.925	8.263	340.803	8192	-8191	8192	8192	254	
77756.836	1	1	0	0	62.3959	64.6166	48.6463	1.63736	45.6449	22.8782	9.77024	77.9861	125.072	132.404	115.481	38.4087	115.596	80.5913	58.4375	181.149	163.578	6.592	163.270	332.476	349.703	354.088	10.525	348.928	8192	-8191	8192	8192	254	
77756.883	1	1	0	0	56.2261	54.7712	65.3801	3.89416	56.9946	28.862	6.80237	82.6633	124.567	131.659	122.418	42.3654	109.784	83.5577	58.9471	181.553	170.693	0.808	168.173	253.677	340.117	354.829	352.406	340.831	8192	-8191	8192	8192	254	
77756.930	1	1	0	0	59.4627	54.3387	50.1469	3.29725	41.3873	26.3661	8.78148	81.5625	122.716	129.077	122.082	37.4279	109.793	76.6875	56.2933	182.332	168.956	3.129	168.272	178.105	338.915	353.562	346.157	345.324	8192	-8191	8192	8192	254	
77756.984	1	1	0	0	55.2383	60.6938	59.1868	4.8018	44.6922	23.8515	5.89247	75.4234	124.543	137.101	120.543	42.8894	109.639	80.9038	55.3029	191.337	168.706	357.044	171.892	130.713	341.076	0.727	359.772	339.361	8192	-8191	8192	8192	254	
77757.031	1	1	0	0	50.4538	60.2675	55.9113	4.88619	42.4224	28.5132	10.2996	79.6939	125.144	133.139	128.264	42.6154	105.462	84.976	57.1875	185.673	161.702	3.675	163.490	319.065	352.292	333.375	0.480	337.864	8192	-8191	8192	8192	254	
77757.078	1	1	0	0	52.0842	51.0089	48.2342	1.02503	47.2668	28.9394	10.7572	88.1701	126.159	129.51	127.572	42.6202	116.486	86.0096	59.5433	186.375	163.458	4.856	161.553	340.356	346.324	347.457	345.922	339.091	8192	-8191	8192	8192	254	
77757.125	1	1	0	0	53.252	65.284	57.9738	2.93705	67.6649	28.755	10.9187	92.4684	122.005	140.76	123.413	38.5913	121.928	81.8173	58.524	186.688	168.646	354.225	167.757	188.913	334.485	349.047	328.148	344.857	8192	-8191	8192	8192	254	
77757.172	1	1	0	0	52.6445	56.4075	53.9747	5.30202	39.4653	21.6309	3.86125	78.6084	122.817	136.524	121.029	41.4087	111.293	84.7644	54.851	186	180.934	355.250	171.465	195.007	344.555	344.299	9.947	348.154	8192	-8191	8192	8192	254	
77757.219	1	1	0	0	61.674	48.5746	63.3159	4.23154	51.8684	25.7257	6.30828	80.5927	119.995	126.255	127.13	42.5529	113.423	80.4567	55.6346	181.846	166.118	357.671	167.054	161.035	342.423	340.676	47.687	340.390	8192	-8191	8192	8192	254	
77757.266	1	1	0	0	68.2586	55.5341	52.0726	0.308283	58.4441	29.1186	5.17572	92.6615	129.394	129.25	116.404	39.2981	112.947	88.7644	51.5529	188.635	162.427	346.591	166.076	15.588	344.598	340.923	302.321	343.138	8192	-8191	8192	8192	254	
77757.344	1	1	0	0	56.1428	59.5566	49.8443	2.05989	48.9498	34.172	10.8389	76.4838	111.293	130.072	120.87	41.9567	111.606	88.6154	55.8606	182.788	169.503	0.281	180.146	107.441	339.563	343.610	2.921	342.342	8192	-8191	8192	8192	254	
77757.391	1	1	0	0	53.9157	55.632	43.4949	4.51231	44.5242	30.7651	14.1308	88.8873	118.37	130.274	121.688	40.8173	112.236	86.3221	57.6538	191.822	166.885	355.220	171.566	294.101	343.216	352.340	0.015	349.466	8192	-8191	8192	8192	254	
77757.438	1	1	0	0	49.6124	52.5659	50.1786	5.16949	49.8104	26.8142	11.1318	81.7355	125.976	134.389	120.837	42.1635	112.654	82.5769	55.9183	180.091	172.570	8.752	169.847	162.112	338.533	352.717	17.247	345.498	8192	-8191	8192	8192	254	
77757.484	1	1	0	0	56.2831	55.6182	54.6701	2.22387	49.2302	25.2733	7.37904	83.3149	123.981	137.582	121.745	42.5192	116.745	79.6106	55.2115	187.048	166.550	2.392	170.737	269.571	347.333	346.893	346.220	343.460	8192	-8191	8192	8192	254	
77757.484	1	1	0	0	52.5369	53.3035	51.4691	2.06011	48.2813	35.8199	9.64338	80.7443	121.356	124.255	121.764	38.9663	109.933	84.4135	54.3462	181.106	174.200	350.943	168.697	300.566	341.626	334.058	311.658	344.087	8192	-8191	8192	8192	254	
77757.531	1	1	0	0	54.4915	50.8665	52.1196	0.885919	53.027	30.6255	7.95753	84.7052	126.346	124.269	122.788	36.8125	117.692	82.6779	54.8894	186.341	169.516	353.848	169.280	223.828	333.105	352.350	349.382	350.065	8192	-8191	8192	8192	254	
77757.578	1	1	7	0	54.6558	60.8418	51.5377	2.67022	54.1493	28.5188	13.0749	80.4166	119.856	134.683	121.26	38.1875	114.899	83.5673	51.6875	181.168	169.436	352.977	173.446	314.448	345.071	359.426	0.435	342.888	8192	-8191	8192	8192	254	
77757.633	1	1	0	0	58.7431	67.782	42.1863	4.42937	49.1499	21.161	5.16914	78.1545	118.798	135.606	121.082	42.476	115.798	80.6779	57.3317	184.808	168.694	355.179	163.007	145.975	336.849	354.792	333.438	342.269	8192	-8191	8192	8192	254	
77757.703	1	1	0	0	50.2068	59.4193	51.1144	5.09865	51.3577	26.8505	7.20412	84.5975	120.726	134.433	118.577	37.7163	109.274	82.1058	54.8221	178.115	171.816	0.678	161.388	111.591	339.655	340.518	340.299	340.807	8192	-8191	8192	8192	254	
77757.750	1	1	0	0	53.7837	49.3806	53.4693	2.8347	55.7106	26.4188	10.3607	84.9271	126.971	129.096	118.312	38.9135	116.442	83.125	55.1971	181.913	173.774	344.031	167.066	306.629	341.899	346.458	8.962	344.311	8192	-8191	8192	8192	254	
77757.797	1	1	0	0	50.2894	47.7191	49.6443	3.79695	52.9935	31.3896	12.6673	75.5285	122.13	129.476	121.12	41.1106	112.957	84.7115	57.8702	188.692	167.832	355.994	179.737	223.701	339.745	334.058	5.813	344.201	8192	-8191	8192	8192	254	
77757.844	1	1	0	0	56.8838	61.6404	57.9763	8.66535	41.4611	29.5353	11.3246	75.1643	126.779	128.981	121.861	38.6971	115.841	88.1538	59.8654	178.144	162.514	357.451	173.086	118.628	340.972	340.011	18.261	341.641	8192	-8191	8192	8192	254	
77757.891	1	1	0	0	55.3313	52.4533	44.076	6.8965	49.4695	34.3539	2.12152	75.9556	124.812	125.413	114.803	41.2308	111.615	83.7452	55.1298	180.745	168.788	347.744	169.049	109.879	348.494	2.398	13.079	348.421	8192	-8191	8192	8192	254	
77757.945	1	1	0	0	58.8361	62.9329	55.0821	2.816	41.2729	23.5173	5.90278	85.756	129.341	133.558	124.394	43.524	108.014	83.7452	56.5721	189.067	173.401	356.875	164.950	35.428	351.431	339.900	329.549	350.259	8192	-8191	8192	8192	254	
77758.016	1	1	0	0	57.6026	50.5088	55.8432	1.28436	55.5207	26.9437	12.8212	69.882	127.495	133.341	123.673	44.7115	116.923	86.2115	60.7067	188.87	174.086	356.425	171.356	114.278	334.354	352.567	351.927	335.350	8192	-8191	8192	8192	254	
77758.062	1	1	0	0	61.9031	47.171	52.3024	12.6833	45.9257	21.9083	10.6129	77.8728	135.332	138.962	135.601	64.3846	135.13	109.341	81.6154	215.822	173.827	349.532	173.627	61.639	342.318	349.540	15.148	342.592	8192	-8191	8192	8192	254	
77758.109	1	1	0	0	56.4354	50.385	52.6677	4.74299	50.9617	25.0322	13.2014	88.5795	153.183	162.442	152.298	77.2452	143.077	116.077	85.0048	217.707	177.314	359.767	160.904	197.859	346.837	352.501	346.629	342.983	8192	-8191	8192	8192	254	
77758.156	1	1	0	0	49.715	58.9122	57.8372	10.8538	55.5661	32.3319	4.9319	90.8744	160.952	174.75	157.226	80.0192	150.635	123.697	86.8413	212.38	163.827	3.223	173.695	254.880	343.162	9.087	17.944	342.558	8192	-8191	8192	8192	254	
77758.203	1	1	0	0	64.7597	47.2883	53.159	4.89693	45.1087	22.2918	10.7661	77.3667	159.851	158.197	143.577	63.8413	136.356	99.5721	70.5192	194.361	169.328	354.446	160.548	59.870	350.935	17.340	7.276	341.265	8192	-8191	8192	8192	254	
77758.250	1	1	0	0	48.1842	57.1508	64.1533	2.93012	55.5963	21.5508	12.3108	79.6588	136.769	142.322	129.812	41.1058	120.014	87.0913	56.0144	181.284	168.662	0.919	176.755	214.812	354.640	353.681	350.941	343.706	8192	-8191	8192	8192	254	
77758.250	1	1	0	0	60.1565	50.7318	49.639	3.15918	55.6585	29.5313	9.54856	89.1583	126.885	122.938	116.423	37.5962	112.12	81.9471	51.2019	187.173	161.918	357.382	174.818	293.855	350.366	354.145	2.430	335.165	8192	-8191	8192	8192	254	
77758.297	1	1	0	0	47.971	55.551	54.3695	5.7898	49.6432	20.2072	6.96235	85.7739	124.279	130.12	118.654	44.1346	109.851	72.7163	51.9567	182.226	175.620	358.476	168.028	156.208	348.427	344.809	337.801	346.877	8192	-8191	8192	8192	254	
77758.375	1	1	0	0	57.4673	66.7886	62.1581	6.99218	50.9662	24.0935	8.06243	93.3213	125.846	135.298	121.841	41.5192	116.375	77.6683	54.6106	190.548	170.708	355.972	167.441	145.172	346.517	348.144	352.555	348.704	8192	-8191	8192	8192	254	
77758.422	1	1	0	0	56.0249	56.4513	54.3249	6.09343	45.6929	30.4095	8.45236	87.5656	123.582	132.26	116.856	39.7644	115.409	83.4856	57.0048	185.072	167.614	2.328	172.760	41.572	343.176	345.607	15.331	340.891	8192	-8191	8192	8192	254	
77758.469	1	1	0	0	54.0068	54.175	57.0947	5.53891	54.7607	22.3466	7.47416	85.4059	118.788	129.495	116.346	43.6827	113.317	74.1635	51.8558	181.596	171.144	354.632	169.779	67.449	347.972	1.754	349.806	349.546	8192	-8191	8192	8192	254	
77758.516	1	1	0	0	52.3038	64.9401	58.557	2.1787	50.6146	32.7953	6.35505	75.2506	123.49	127.188	125.726	39.0385	112.37	81.9808	53.7404	187.769	173.095	0.891	162.836	92.005	340.934	341.221	1.693	349.696	8192	-8191	8192	8192	254	
77758.562	1	1	0	0	56.4671	58.6675	58.3458	2.56725	40.3062	32.1186	12.752	92.1044	134.788	130.101	129.606	41.1827	111.125	85.3317	53.6779	187.01	169.848	4.619	170.506	243.961	336.279	357.193	334.491	341.703	8192	-8191	8192	8192	254	
77758.609	1	1	0	0	58.2964	62.0689	42.2051	2.2865	57.297	17.277	5.91559	75.6253	127.596	130.394	113.245	43.2596	118.567	81.5096	53.5817	183.678	166.432	0.514	173.362	276.537	334.782	2.564	279.114	342.675	8192	-8191	8192	8192	254	
77758.664	1	1	0	0	60.3564	64.8812	52.5827	5.95612	56.6402	31.3621	12.8936	88.2095	135.077	131.933	118.365	41.2019	116.99	81.7404	53.4183	181.654	169.684	2.776	166.289	187.766	347.741	343.529	4.146	341.066	8192	-8191	8192	8192	254	
77758.711	1	1	0	0	60.1001	52.3108	51.3558	2.03939	53.5366	21.9478	13.6243	88.3669	123.26	132.409	121.337	43.1923	113.418	82.774	57.4423	192.159	167.390	357.865	165.577	158.689	335.606	353.582	359.811	340.731	8192	-8191	8192	8192	254	
77758.758	1	1	0	0	52.4959	52.5409	38.0507	3.83345	47.0738	25.9706	8.03497	79.5008	121.111	131.889	113.274	39.8365	107.284	81.8173	52.8558	172.909	170.993	355.625	172.432	85.625	340.712	351.464	329.534	342.102	8192	-8191	8192	8192	254	
77758.805	1	1	0	0	61.1324	52.1371	54.7122	4.54797	57.362	24.3636	6.0347	77.2572	122.933	131.486	123.457	40.7885	112.947	85.9904	57.4327	175.947	170.699	1.552	169.323	179.831	345.754	5.689	319.436	336.766	8192	-8191	8192	8192	254	
77758.875	1	1	0	0	57.7829	61.6547	46.7608	3.2048	57.889	19.583	10.1276	75.2237	124.567	134.173	116.755	39.5385	111.351	83.0096	54.5817	178.01	165.879	355.584	172.987	175.853	340.221	341.786	342.125	344.552	8192	-8191	8192	8192	254	
77758.930	1	1	0	0	56.1482	48.5344	49.5284	2.66365	56.1676	25.0772	8.364	71.1736	119.966	131.462	116.014	37.5048	121.053	79.1971	61.6683	173.668	169.254	348.311	162.078	81.075	341.524	352.311	1.633	350.079	8192	-8191	8192	8192	254	
77758.977	1	1	0	0	50.7117	55.5887	56.2855	3.31039	50.1095	31.2658	8.66219	80.7797	121.784	135.918	122.861	43.0385	114.188	84.6683	54.6827	188.332	167.268	355.328	171.770	289.072	350.123	352.961	358.466	343.625	8192	-8191	8192	8192	254	
77759.023	1	1	0	0	50.6685	50.533	53.4122	4.18272	48.3351	28.8	13.1854	72.3546	128.346	136.635	122.322	49.7885	109.798	86.8173	57.1538	176.293	165.542	359.986	166.917	110.956	337.071	351.748	355.280	343.859	8192	-8191	8192	8192	254	
77759.023	1	1	0	0	53.982	58.3549	51.5868	0.801837	47.8568	31.8473	9.59756	87.051	126.986	131.837	117.596	44.0769	124.51	85.7548	53.6587	183.433	164.922	353.018	174.401	266.640	357.113	340.618	1.013	345.485	8192	-8191	8192	8192	254	
77759.070	1	1	0	0	53.5244	55.9728	53.5999	1.87698	44.1413	28.0289	10.8457	78.1876	128.524	136.62	126.12	43.5048	120.712	84.7981	60.5433	183.856	166.126	355.783	169.338	261.264	342.966	351.662	21.357	343.052	8192	-8191	8192	8192	254	
77759.141	1	1	0	0	60.7868	52.7881	49.3932	5.70322	49.6826	30.9294	6.1268	79.5093	128.298	135.452	120.587	45.6346	114.861	85.5529	57.5913	178.038	178.927	359.169	165.572	102.963	336.456	342.130	341.375	336.113	8192	-8191	8192	8192	254	
77759.188	1	1	0	0	59.9337	56.3722	49.2427	6.11303	49.9553	20.9733	10.6271	80.3166	126.562	136.76	119.832	46.1587	115.341	83.3269	55.4856	181.024	171.308	11.019	174.010	279.561	348.526	344.154	1.937	337.021	8192	-8191	8192	8192	254	
77759.234	1	1	0	0	61.2857	54.2115	51.2043	2.48904	40.2523	19.8862	9.96277	79.6536	123.99	125.471	128.26	41.9375	107.755	80.625	58.75	178.163	167.979	356.438	169.543	181.422	333.652	349.468	310.220	336.460	8192	-8191	8192	8192	254	
77759.289	1	1	0	0	60.0002	52.146	47.9671	1.60123	49.5767	26.4562	7.38378	82.0166	121.995	124.99	118.149	40.3558	110.678	77.8173	60.0048	186.293	172.236	8.502	167.482	255.296	346.415	357.663	345.997	338.569	8192	-8191	8192	8192	254	
77759.336	1	1	0	0	55.1657	43.217	45.8809	4.64268	48.3893	25.5278	14.899	78.1062	127.918	128.24	110.947	43.8606	109.538	81.7019	59.2596	174.851	169.398	358.873	173.958	331.430	341.992	338.987	14.651	355.446	8192	-8191	8192	8192	254	
77759.383	1	1	0	0	63.3191	56.9934	49.093	4.32671	48.5416	27.8339	11.3959	79.2615	126.356	140.067	123.683	40.2933	114.774	80.1442	55.9375	189.25	168.855	348.674	169.068	25.981	339.881	338.997	337.536	344.683	8192	-8191	8192	8192	254	
77759.430	1	1	0	0	57.5294	65.1046	50.8124	4.83926	40.9292	21.5555	16.6166	89.9508	124.125	138.88	118.505	41.4183	111.659	81.4231	61.4231	184.567	170.861	358.990	168.493	3.882	353.946	339.605	357.882	349.336	8192	-8191	8192	8192	254	
77759.477	1	1	0	0	62.0742	51.6014	55.0318	2.62222	51.0901	28.7731	3.9215	75.8144	123.591	126.784	119.308	42.1587	108.885	81.3558	57.6875	185.769	172.190	1.198	170.253	71.694	346.809	353.499	0.347	347.125	8192	-8191	8192	8192	254	
77759.547	1	1	0	0	47.4933	56.927	51.0229	7.76895	51.9146	33.0045	6.06254	67.0252	120.457	127.644	116.212	42.899	108.683	86.0865	51.875	180.303	170.191	1.431	173.605	187.755	346.774	328.300	335.751	340.156	8192	-8191	8192	8192	254	
77759.594	1	1	0	0	54.9351	56.8348	53.5729	5.95058	55.6669	26.3446	3.48963	85.1987	122.688	131.87	120.428	38.774	116.87	82.5865	54.8846	193.615	167.219	5.639	167.711	250.762	342.168	350.945	303.065	347.213	8192	-8191	8192	8192	254	
77759.648	1	1	0	0	51.1913	60.8842	56.1064	3.41979	53.9093	26.1787	10.3198	79.8113	116.827	129.769	121.356	46.2019	116.212	84.2933	56.25	176.74	163.083	353.820	167.820	207.307	350.271	345.807	33.297	346.913	8192	-8191	8192	8192	254	
77759.695	1	1	0	0	64.543	61.7827	53.323	1.66855	50.4322	21.9715	8.85732	67.24	119.178	129.587	124.365	41.5865	116.889	80.875	56.0337	172.087	159.633	3.756	172.867	293.927	350.272	354.198	7.399	351.547	8192	-8191	8192	8192	254	
77759.742	1	1	0	0	51.8158	51.5548	48.805	5.16335	42.5958	27.0941	9.20776	72.9721	122.726	130.519	122.077	40.7019	113.457	80.5337	51.0288	171.577	163.778	353.006	168.878	187.389	335.764	344.821	356.181	353.767	8192	-8191	8192	8192	254	
77759.789	1	1	0	0	50.5158	48.0851	49.5114	5.57591	43.289	25.9179	11.6425	90.217	121.495	132.452	119.918	46.1346	109.606	76.7837	52.6202	182.418	156.333	355.007	166.036	11.400	350.556	358.204	11.225	338.366	8192	-8191	8192	8192	254	
77759.789	1	1	0	0	56.2402	54.0105	49.9459	5.70168	50.9846	30.7618	6.64711	73.8597	118.058	132.611	114.837	41.2933	108.476	85.1875	56.9183	179.966	162.900	3.820	169.314	97.079	336.342	340.300	357.070	344.281	8192	-8191	8192	8192	254	
77759.836	1	1	0	0	58.43	52.8236	52.1657	3.92232	47.18	21.0752	14.1212	85.4419	126.543	132.572	125.327	43.0048	115.514	77.9712	58.5481	185.048	162.671	2.248	172.110	22.758	353.221	354.403	10.108	347.304	8192	-8191	8192	8192	254	
77759.883	1	1	0	0	54.016	52.1821	43.6333	5.91906	59.724	27.8649	9.30889	77.0211	123.428	130.601	114.889	43.9856	114.683	82.6827	56.4615	179.548	177.652	6.498	169.251	338.450	345.950	356.068	15.574	349.565	8192	-8191	8192	8192	254	
77759.938	1	1	0	0	56.2082	55.1729	55.7325	6.32479	45.9857	31.8098	9.76894	88.1536	123.995	131.611	118.312	41.4808	116.385	85.3029	56.9904	179.091	159.244	349.316	168.692	305.410	339.516	339.580	343.114	344.601	8192	-8191	8192	8192	254	
77760.008	1	1	0	0	50.5821	49.5782	63.1434	3.11629	46.1469	27.1035	5.81274	73.5797	126.091	133.087	129.486	44.0913	111.341	80.476	53.899	181.995	166.073	349.992	172.671	353.245	339.625	355.121	11.257	343.592	8192	-8191	8192	8192	254	
77760.055	1	1	0	0	53.6856	64.2259	52.6949	5.97301	57.8201	20.9504	8.38826	90.4202	133.087	135.524	126.615	44.3221	117.317	79.4567	57.9423	179.971	169.791	350.042	168.740	300.740	343.374	11.311	21.796	342.835	8192	-8191	8192	8192	254	
77760.102	1	1	0	0	57.695	56.2402	47.4722	1.6929	54.0085	36.1814	12.2963	89.9068	126.966	129.707	118.736	40.8894	118.288	88.1971	50.3558	181.394	169.692	0.907	164.734	308.645	341.251	338.888	351.428	345.711	8192	-8191	8192	8192	254	
77760.148	1	1	0	0	59.389	54.0764	41.014	2.48535	42.413	25.7296	9.41817	72.0069	122.976	135.091	118.745	41.9663	111.63	78.8029	56.6875	179.918	168.683	355.119	167.643	32.664	344.722	349.363	327.596	342.885	8192	-8191	8192	8192	254	
77760.195	1	1	0	0	59.1888	53.5988	55.1704	2.68973	45.9288	27.9545	11.1943	85.3605	126.457	125.567	122.572	41.7788	108.962	86.476	54.7788	186.221	171.833	354.205	165.553	110.344	344.917	340.262	326.987	344.816	8192	-8191	8192	8192	254	
77760.242	1	1	0	0	57.3573	52.3053	53.5441	3.09338	47.9498	24.9371	7.58917	79.7846	125.803	131.082	121.803	42.5385	112.058	84.7596	56.75	178.688	169.248	4.391	173.227	194.566	345.313	6.352	13.155	348.363	8192	-8191	8192	8192	254	
77760.297	1	1	0	0	57.052	60.5104	47.4011	9.14685	46.7134	30.4272	11.4409	78.347	125.101	132.962	120.12	40.3606	108.178	82.3413	57.6779	181.058	168.217	4.544	176.390	341.390	343.435	342.791	22.848	344.653	8192	-8191	8192	8192	254	
77760.344	1	1	0	0	42.4273	61.1331	50.4126	2.96543	52.7604	20.4278	12.6327	73.1913	125.885	130.625	121.865	43.1346	122.755	79.976	58.4279	183.861	166.142	3.143	165.164	46.363	349.603	353.136	6.077	341.728	8192	-8191	8192	8192	254	
77760.414	1	1	0	0	48.5941	58.5676	47.7764	3.59692	48.9919	28.1694	5.95652	97.8998	116.216	135.649	123.356	40.3558	111.793	86.3413	52.4567	190.99	166.902	358.333	163.408	313.912	343.768	352.279	325.463	344.574	8192	-8191	8192	8192	254	
77760.461	1	1	0	0	63.0166	54.7958	51.0127	3.32668	49.2324	25.2132	8.39119	83.1859	130.125	129.192	129.163	40.3317	112.332	83.4615	58.5673	182.865	172.513	6.254	157.385	322.460	346.977	353.898	312.192	350.156	8192	-8191	8192	8192	254	
77760.508	1	1	0	0	51.5194	57.022	56.2108	2.86568	44.3992	32.0159	10.1333	81.192	119.659	137.529	121.683	42.4663	112.986	78.4808	56.5433	182.163	176.742	356.202	170.233	15.023	336.726	341.858	355.896	348.114	8192	-8191	8192	8192	254	
77760.555	1	1	0	0	51.8239	55.998	54.043	0.264978	48.8739	30.2563	11.8009	86.6565	122.149	129.019	118.913	42.6923	114.163	84.2548	54.774	179.125	173.625	0.047	166.764	104.417	350.615	354.366	1.508	343.890	8192	-8191	8192	8192	254	
77760.555	1	1	0	0	55.6757	58.9632	56.8068	4.62906	47.6564	31.592	11.7619	77.225	125.861	134.784	124.716	41.5913	115.798	91.5192	54.9471	178.139	168.789	0.684	169.994	118.881	344.226	351.239	314.233	346.976	8192	-8191	8192	8192	254	
77760.602	1	1	0	0	53.3667	55.0067	45.0158	0.797425	47.5824	25.5363	10.3158	80.7285	120.803	128.168	120.365	38.774	117.288	86.0433	59.3846	183.096	166.223	359.747	162.952	190.859	348.114	354.428	358.285	343.515	8192	-8191	8192	8192	254	
77760.656	1	1	0	0	47.6341	53.0583	51.9659	3.26388	54.8752	24.9893	4.19852	84.6527	121.423	123.192	121.38	42.8413	116.183	84.9471	57.875	184.894	154.331	6.356	162.815	87.078	339.103	351.401	96.530	340.517	8192	-8191	8192	8192	254	
77760.703	1	1	0	0	61.3921	57.0693	53.6003	2.55921	54.9136	24.1269	11.2075	85.98	127.149	140.197	118.707	47.0673	114.264	83.125	54.4856	183.01	175.062	357.459	167.928	206.614	344.137	335.474	353.497	339.346	8192	-8191	8192	8192	254	
77760.773	1	1	0	0	58.1834	51.828	46.6008	3.09882	51.8751	23.9888	5.54459	89.4287	128.534	130.236	118.673	42.5192	115.135	84.7452	64.2452	192.635	168.888	4.370	168.792	329.846	344.018	331.796	60.157	339.781	8192	-8191	8192	8192	254	
77760.820	1	1	0	0	66.3635	51.0555	62.2973	3.14921	51.4199	19.0607	17.3382	79.8782	130.731	134.543	128.596	42.875	117.99	82.9279	59.5433	193.885	164.139	359.172	173.189	341.198	342.062	340.278	316.446	349.942	8192	-8191	8192	8192	254	
77760.867	1	1	0	0	57.7181	60.1782	61.8017	3.49034	51.8181	27.6468	5.43669	92.0466	131.553	133.851	127.774	42.3942	113.639	86.2644	58.2644	188.962	172.845	355.651	166.360	349.129	343.248	350.304	326.498	341.720	8192	-8191	8192	8192	254	
77760.922	1	1	0	0	53.5374	51.0655	45.3373	2.89572	54.3205	27.3783	11.2671	74.1315	122.529	141.524	120.591	45.726	120.75	81.9471	59.4327	180.173	172.008	1.161	167.083	276.001	340.865	356.204	357.686	338.803	8192	-8191	8192	8192	254	
77760.969	1	1	0	0	57.9205	51.8938	50.2307	5.44518	51.8205	24.6186	8.37556	86.4534	129.01	134.115	126.942	49.1106	123.976	83.976	59.2212	186.764	170.851	356.257	163.603	150.430	339.752	2.203	357.907	337.879	8192	-8191	8192	8192	254	
77761.016	1	1	0	0	64.2817	64.5363	45.9261	8.09367	48.4764	20.6606	7.3991	91.6352	121.529	139.582	122.13	48.1058	113.995	87.8894	58.976	194.529	161.875	358.430	160.748	189.631	341.097	351.920	334.592	347.823	8192	-8191	8192	8192	254	
77761.062	1	1	0	0	54.6467	58.8804	59.7077	1.65027	50.5272	31.5321	9.8701	70.9062	139.625	135.942	129.928	47.7788	118.856	91.4952	64.9663	180.601	178.906	4.297	159.961	305.412	344.209	334.133	353.918	348.397	8192	-8191	8192	8192	254	
77761.109	1	1	0	0	52.4218	55.782	48.8975	1.25232	45.6905	30.9746	7.57399	79.3858	121.678	136.76	119.168	45.8029	117.558	85.2356	59.2885	191.038	168.254	356.629	160.510	28.625	336.300	334.870	286.523	339.776	8192	-8191	8192	8192	254	
77761.180	1	1	0	0	60.2406	61.8817	51.9025	3.12654	49.209	26.6842	8.97295	87.4182	124.788	140.856	125.611	45.4856	114.207	89.2981	57.3125	196.288	172.365	354.390	170.393	128.946	343.277	343.729	335.901	341.651	8192	-8191	8192	8192	254	
77761.227	1	1	0	0	60.5375	54.1991	43.5112	5.65004	41.2501	34.566	5.79101	76.7706	130.971	126.481	114.697	43.0337	119.798	84.2404	58.0962	185.875	178.732	4.005	176.748	120.038	347.599	346.739	332.600	345.090	8192	-8191	8192	8192	254	
77761.273	1	1	8	0	54.5217	49.1235	55.8814	5.44392	48.9962	31.0712	9.96292	84.9909	127.76	135.062	127.154	47.3462	117.452	87.125	59.7308	190.072	176.598	356.822	173.339	76.371	355.671	357.503	351.984	342.151	8192	-8191	8192	8192	254	
77761.328	1	1	0	0	57.6032	61.3347	52.3451	3.49233	48.1625	24.919	8.01735	85.6207	135.534	134.962	125.274	44.1106	120.111	86.774	58.3702	186.712	168.183	3.229	163.980	55.544	345.286	347.923	317.691	350.241	8192	-8191	8192	8192	254	
77761.328	1	1	0	0	58.32	56.3245	55.4435	5.18138	50.3091	32.2344	15.628	78.8413	126.562	132.264	128.24	50.4471	114.188	90.1058	56.5625	188.212	171.721	355.094	159.138	50.061	340.314	347.062	342.694	343.106	8192	-8191	8192	8192	254	
77761.375	1	1	0	0	62.9769	62.0028	56.4599	1.60872	55.1281	24.9288	13.021	81.9972	137.423	137.149	128.476	43.8846	118.447	84.5337	63.2404	193.139	170.709	356.054	171.593	159.482	340.749	340.407	8.373	344.133	8192	-8191	8192	8192	254	
77761.445	1	1	0	0	58.2438	46.327	64.3225	2.08149	56.4316	33.8716	5.35197	90.7482	128.298	127.803	122.851	45.899	127.611	94.0817	57.4904	181.851	171.624	3.098	164.546	200.843	339.925	349.826	326.002	345.686	8192	-8191	8192	8192	254	
77761.492	1	1	0	0	66.8189	61.3786	59.7135	0.827348	48.0723	26.6066	6.98445	80.4171	132.514	141.308	135.346	45.9663	112.668	83.2596	60.649	183.452	168.673	352.339	167.292	164.432	342.457	356.973	9.900	340.969	8192	-8191	8192	8192	254	
77761.539	1	1	0	0	57.2123	59.3363	48.2795	3.02616	47.9664	20.0507	7.58007	89.5257	132.337	146.365	123.163	42.524	118.029	84.5913	60.1538	189.995	168.976	354.655	159.945	89.035	345.007	339.949	335.112	345.658	8192	-8191	8192	8192	254	
77761.594	1	1	0	0	61.1312	60.0365	51.8647	4.43728	45.2729	23.6519	7.2595	80.2898	134.726	137.178	123.779	44.899	118.197	85.5529	61.7837	187.385	175.451	358.910	172.686	39.375	346.251	354.014	323.787	337.521	8192	-8191	8192	8192	254	
77761.641	1	1	0	0	55.4521	58.0714	58.8827	6.90007	36.1237	24.3279	10.246	75.834	125.736	136.067	132.058	41.8558	116.548	85.1154	54.8606	188.389	174.688	359.911	172.018	120.643	342.955	336.245	3.949	344.835	8192	-8191	8192	8192	254	
77761.688	1	1	0	0	57.8516	52.3175	49.8914	5.15463	57.2846	22.2547	8.04806	81.0079	132.5	134.356	126.808	49.0769	116.856	81.1587	57.5865	186.63	175.443	2.017	169.273	61.744	351.386	346.167	327.292	345.966	8192	-8191	8192	8192	254	
77761.734	1	1	0	0	52.616	49.0229	54.9637	3.0115	51.8427	24.7153	14.0729	78.3545	129.889	137.774	131.476	44.2885	120.476	77.0192	61.0865	185.899	169.701	350.801	169.626	353.528	335.991	338.560	333.781	344.209	8192	-8191	8192	8192	254	
77761.781	1	1	0	0	71.9716	57.8754	49.9922	3.83904	55.4591	27.6595	6.6199	85.1533	138.524	136.904	130.644	43.875	124.909	84.5144	62.1058	190.928	168.831	4.174	168.308	305.149	336.079	340.849	356.945	346.687	8192	-8191	8192	8192	254	
77761.852	1	1	0	0	50.1024	60.5759	47.1481	5.20955	48.8872	28.5393	10.4882	89.5792	130.034	134.197	130.841	47.6442	118.846	87.476	60.9567	196.202	168.146	357.696	156.449	309.072	342.555	4.182	351.822	344.379	8192	-8191	8192	8192	254	
77761.898	1	1	0	0	55.8266	56.8669	43.3776	8.14904	52.8189	28.7776	20.6195	82.4923	126.13	143.361	122.274	46.5096	117.764	87.6587	61.1971	179.909	171.921	354.127	172.718	346.827	332.767	346.852	342.995	342.924	8192	-8191	8192	8192	254	
#DATA ENDS
