BOXY.EXE: ISS Imagent Data Acquisition Program Version 0.82
Ascii Record File

#ACQ INFORMATION
1  Detector Channels 
8  External MUX Channels 
4  Auxiliary Analog Channels 
5000  Waveform (CCF) Frequency (Hz)
4  Waveforms Skipped 
26  Waveforms Averaged 
1  Cycles Averaged 
8  Acquisitions per Waveform 
1  Auxiliary Digital Channels 

#Data Update Rate
20.8333  Update Rate (Hz) 
FALSE -- Use Phase Reference
FALSE -- Use Continuous Phase Reference
FALSE -- Use Intensity Reference
FALSE -- Use Continuous Intensity Reference

#FILE INFORMATION
TRUE -- External MUX Channel results are PARSED.
FALSE -- AC DC and Phase are NOT grouped.
TRUE -- Companion Program Settings File CREATED.
FALSE -- AC data not excluded
FALSE -- DC data not excluded
FALSE -- Phase data not excluded
FALSE -- Auxillary Chn. data not excluded
Tab delimiters

#CALIBRATION STATE
FALSE -- Waveform Calibration Values NOT applied.

#WAVELENGTH DATA
Wavelength Index	Wavelength	Comp1 ExtCoef	Comp2 ExtCoef	Comp3 ExtCoef	Comp4 ExtCoef	BackGround	Weight	

1	6.600e+02	1.486e+00	3.844e+00	1.000e+00	1.000e+00	1.890e-02	1.000e+00	
2	6.900e+02	2.315e+00	1.792e+00	1.000e+00	1.000e+00	2.180e-02	1.000e+00	
3	7.500e+02	1.000e+00	1.000e+00	1.000e+00	1.000e+00	3.010e-03	1.000e+00	
4	7.750e+02	1.000e+00	1.000e+00	1.000e+00	1.000e+00	3.240e-03	1.000e+00	
5	7.850e+02	1.000e+00	1.000e+00	1.000e+00	1.000e+00	1.660e-02	1.000e+00	
6	8.000e+02	1.000e+00	1.000e+00	1.000e+00	1.000e+00	1.480e-02	1.000e+00	
7	8.250e+02	1.000e+00	1.000e+00	1.000e+00	1.000e+00	1.620e-02	1.000e+00	
8	8.300e+02	1.000e+00	1.000e+00	1.000e+00	1.000e+00	2.620e-02	1.000e+00	


#AUX CALIBRATION VALUES
Val Type	aux-1	aux-2	aux-3	aux-4	

Term	0.0000e+00	0.0000e+00	0.0000e+00	0.0000e+00	
Factor	1.0000e+00	1.0000e+00	1.0000e+00	1.0000e+00	


#WF CALIBRATION VALUES
A = Detector Channel
Val Type	A-AC1	A-AC2	A-AC3	A-AC4	A-AC5	A-AC6	A-AC7	A-AC8	A-DC1	A-DC2	A-DC3	A-DC4	A-DC5	A-DC6	A-DC7	A-DC8	A-Ph1	A-Ph2	A-Ph3	A-Ph4	A-Ph5	A-Ph6	A-Ph7	A-Ph8	

Term	0.00000e+00	0.00000e+00	0.00000e+00	0.00000e+00	0.00000e+00	0.00000e+00	0.00000e+00	0.00000e+00	0.00000e+00	0.00000e+00	0.00000e+00	0.00000e+00	0.00000e+00	0.00000e+00	0.00000e+00	0.00000e+00	-1.05892e+02	-9.99249e+01	-2.86485e+02	-2.62799e+02	-2.45797e+02	-2.48632e+02	-7.72400e+01	-7.86612e+01	
Factor	3.48934e-02	2.88771e-02	2.23541e-02	4.58344e-02	3.11822e-02	3.92311e-02	3.80806e-02	2.80088e-02	4.70955e+01	8.07534e+01	3.66973e+01	1.04434e+02	6.45565e+01	3.94082e+01	9.13796e+01	5.49806e+01	X	X	X	X	X	X	X	X	



#DISTANCE SETTINGS
A = Detector Channel
A-1	A-2	A-3	A-4	A-5	A-6	A-7	A-8	

1.5000e+00	1.5000e+00	1.5000e+00	1.5000e+00	1.5000e+00	1.5000e+00	1.5000e+00	1.5000e+00	



#ADDITIONAL SIGNAL INFORMATION
A = Detector Channel
Info. Type	A-1	A-2	A-3	A-4	A-5	A-6	A-7	A-8	

cal. block. ind.	1	1	1	1	1	1	1	1	
wavelength ind.	0	1	2	3	4	5	6	7	
weight	1.0000e+00	1.0000e+00	1.0000e+00	1.0000e+00	1.0000e+00	1.0000e+00	1.0000e+00	1.0000e+00	


#CALIBRATION BLOCK OPTICAL PROPS
Calib. Block Num.	WaveLen Index	Absorption	Scattering	

1	1	1.080e-01	9.000e+00	
1	2	1.300e-01	1.070e+01	
1	3	1.130e-01	9.400e+00	
1	4	1.210e-01	1.000e+01	
1	5	1.080e-01	9.000e+00	
1	6	1.300e-01	1.070e+01	
1	7	1.150e-01	9.600e+00	
1	8	1.330e-01	1.090e+01	

Calib. Block Num.	WaveLen Index	Absorption	Scattering	

2	1	1.120e-01	4.400e+00	
2	2	1.200e-01	5.700e+00	
2	3	1.140e-01	4.600e+00	
2	4	1.160e-01	5.100e+00	
2	5	1.120e-01	4.400e+00	
2	6	1.200e-01	5.700e+00	
2	7	1.150e-01	4.800e+00	
2	8	1.210e-01	6.000e+00	

Calib. Block Num.	WaveLen Index	Absorption	Scattering	

3	1	9.300e-02	8.700e+00	
3	2	1.010e-01	1.040e+01	
3	3	9.500e-02	9.000e+00	
3	4	9.700e-02	9.600e+00	
3	5	9.300e-02	8.700e+00	
3	6	1.010e-01	1.040e+01	
3	7	9.600e-02	9.300e+00	
3	8	1.030e-01	1.080e+01	

Calib. Block Num.	WaveLen Index	Absorption	Scattering	

4	1	1.000e-01	1.000e+01	
4	2	1.000e-01	1.000e+01	
4	3	1.000e-01	1.000e+01	
4	4	1.000e-01	1.000e+01	
4	5	1.000e-01	1.000e+01	
4	6	1.000e-01	1.000e+01	
4	7	1.000e-01	1.000e+01	
4	8	1.000e-01	1.000e+01	



#DATA BEGINS
time	group	step	mark	flag	A-AC1	A-AC2	A-AC3	A-AC4	A-AC5	A-AC6	A-AC7	A-AC8	A-DC1	A-DC2	A-DC3	A-DC4	A-DC5	A-DC6	A-DC7	A-DC8	A-Ph1	A-Ph2	A-Ph3	A-Ph4	A-Ph5	A-Ph6	A-Ph7	A-Ph8	aux-1	aux-2	aux-3	aux-4	digaux	

77570.953	1	1	0	768	3465.41	7.39382	3388.77	1522.96	507.218	4668.97	1.64895	2.63553	5229.62	50.6683	4875.94	2463.43	860.394	8155.23	50.8846	44.1154	124.937	350.650	299.499	303.665	306.255	300.214	344.154	253.575	8192	-8191	8192	8192	254	
77571.000	1	1	0	0	4353.6	4632.83	3957.67	3.75542	3326.79	1578.47	483.476	4665.6	6428.05	7438.53	6023.55	51.9471	4844.13	2483.89	868.178	8105.64	123.694	312.794	122.779	343.963	298.724	302.650	307.143	298.829	8192	-8191	8192	8192	254	
77571.047	1	1	0	0	4401.56	4546.53	4083.02	4.30855	3385.64	1564.47	481.084	4660.57	6451.79	7414.35	6186.27	55.8269	4868.1	2474.54	877.231	8100.48	124.080	312.041	122.469	7.486	299.025	303.906	303.901	298.700	8192	-8191	8192	8192	254	
77571.094	1	1	0	0	4442.99	4638.83	4005	10.5257	3353.64	1570.63	498.177	4709.95	6460.46	7467.87	6138.63	50.9375	4852.3	2482.77	889.226	8135.11	123.949	311.412	122.658	249.856	298.250	304.558	306.160	298.915	8192	-8191	8192	8192	254	
77571.164	1	1	0	0	4348.44	4579.94	4044.81	8.94004	3403.33	1598.69	487.725	4662.72	6429.59	7439.15	6187.83	50.6971	4872.01	2480.58	870.221	8152.42	123.596	311.950	121.803	279.115	298.713	303.083	305.502	299.161	8192	-8191	8192	8192	254	
77571.211	1	1	0	0	4420.84	4630.82	4090.2	8.6972	3304.53	1601.71	482.181	4739.91	6499.44	7466.16	6207.83	50.9423	4846.27	2491.69	866.615	8123.68	124.184	310.767	121.875	321.340	299.454	302.641	306.379	299.562	8192	-8191	8192	8192	254	
77571.266	1	1	0	0	4345.14	4610.64	4018.13	5.66072	3429.52	1564.89	489.769	4690.26	6449.84	7437.79	6160.07	54.2885	4914	2489.78	856.899	8114.08	123.583	312.180	122.712	345.706	299.173	302.945	304.953	299.506	8192	-8191	8192	8192	254	
77571.312	1	1	0	0	4408.27	4617.7	4108.94	3.12869	3349.87	1579.91	487.044	4637.91	6437.62	7446.34	6232.52	52.5433	4853.68	2476.03	876.548	8089.48	123.856	312.160	122.463	324.561	299.241	302.766	306.333	298.733	8192	-8191	8192	8192	254	
77571.359	1	1	0	0	4366.77	4668.56	4058.84	12.4834	3332.67	1592.31	485.148	4667.52	6443.17	7449.03	6184.97	52.5288	4890.1	2475.49	853.428	8115.55	123.239	311.633	122.623	296.100	299.398	302.989	306.839	300.396	8192	-8191	8192	8192	254	
77571.406	1	1	0	0	4416.36	4649.07	3949.08	1.25333	3332.08	1539.64	473.018	4711.38	6482.78	7426.07	6209.67	48.524	4831.71	2460.41	840.731	8159.72	123.717	312.829	123.270	82.012	298.980	302.828	305.419	299.816	8192	-8191	8192	8192	254	
77571.453	1	1	0	0	4402.66	4601.78	4046.25	5.42306	3334.34	1602.85	474.485	4656.11	6468.92	7437.35	6212.5	52.6202	4838.39	2505.83	850.308	8088.74	123.997	311.853	122.608	323.495	299.039	301.929	305.482	298.615	8192	-8191	8192	8192	254	
77571.500	1	1	0	0	4404.19	4637.45	4096.49	7.12723	3355.74	1582.01	473.811	4666.48	6465.74	7433.75	6228.42	53.1394	4893.31	2501.75	853.87	8115.12	123.629	312.039	122.301	323.860	299.522	302.667	304.301	299.039	8192	-8191	8192	8192	254	
77571.570	1	1	0	0	4362.74	4656.02	4117.58	4.45207	3303.36	1544.02	473.116	4657.54	6438.15	7464	6221.9	51.3606	4821.9	2470.65	848.514	8104.41	124.245	311.784	122.190	308.828	298.841	300.701	306.023	298.684	8192	-8191	8192	8192	254	
77571.625	1	1	0	0	4387.02	4556.71	4062.49	6.41866	3342.2	1579.47	472.999	4689.45	6435.67	7432.02	6231.16	50.5433	4851.27	2491.05	853.889	8127.45	123.349	312.724	123.452	309.406	298.608	303.291	306.543	299.480	8192	-8191	8192	8192	254	
77571.672	1	1	0	0	4354.2	4603.73	4108.4	3.23145	3382.48	1563.94	500.2	4654.82	6429	7395.32	6238.72	53.6346	4877.8	2462.32	872.822	8101.05	124.151	311.451	122.386	1.098	299.826	301.900	306.392	298.941	8192	-8191	8192	8192	254	
77571.719	1	1	0	0	4384.15	4600.6	4147.23	5.03177	3382.97	1554.42	468.596	4676.66	6466.41	7443.66	6270.66	52.2308	4877.36	2486.69	840.505	8142.4	123.232	311.916	122.267	269.479	299.083	302.913	310.048	299.080	8192	-8191	8192	8192	254	
77571.719	1	1	0	0	4349.64	4567.53	4092.05	7.14942	3355.63	1634.99	514.502	4673.42	6439.28	7418.88	6283.24	49.6442	4886.95	2520.98	870.673	8121.98	124.025	311.620	121.601	346.581	299.393	303.240	304.398	298.466	8192	-8191	8192	8192	254	
77571.766	1	1	0	0	4442.04	4661.67	4106.27	10.2332	3339.4	1569.01	484.701	4625.58	6460.25	7487.99	6278.4	51.2692	4852.56	2504.28	862.101	8036.5	123.643	311.529	122.366	290.020	298.319	302.723	306.847	299.607	8192	-8191	8192	8192	254	
77571.812	1	1	1	0	4408.54	4623.08	4120.79	4.97913	3342.97	1592.84	487.205	4679.51	6478.85	7447.64	6280.99	54.5673	4837.62	2484.16	854.923	8188	123.241	311.479	122.726	243.595	299.876	302.575	307.167	299.142	8192	-8191	8192	8192	254	
77571.859	1	1	0	0	4380.79	4580.63	4087.66	6.96343	3363.61	1597.82	483.183	4682.36	6437.73	7407.8	6247.14	50.3077	4851.47	2525.3	852.601	8081	123.261	312.138	123.171	337.119	299.142	304.029	305.862	298.744	8192	-8191	8192	8192	254	
77571.938	1	1	0	0	4446.42	4590.56	4117.55	4.53876	3392.9	1561.15	469.873	4653.22	6469.17	7455.66	6235.56	52.8269	4901.58	2483.71	854.668	8101.84	123.439	310.923	122.686	352.483	298.752	302.077	304.483	299.027	8192	-8191	8192	8192	254	
77571.984	1	1	0	0	4379.45	4629.87	4015.94	4.87938	3264.02	1578.57	508.859	4690.52	6442.25	7467.55	6221.94	54.3269	4835.69	2465.27	863.529	8101.76	123.467	311.210	122.225	271.364	298.374	302.598	302.675	298.876	8192	-8191	8192	8192	254	
77572.031	1	1	0	0	4332.45	4632.2	4042.09	10.3662	3351.28	1554.77	480.214	4698.02	6461.83	7446.68	6227.61	46.1635	4849.5	2484.61	861.712	8092.82	123.329	312.199	122.167	313.393	298.618	301.510	305.361	299.094	8192	-8191	8192	8192	254	
77572.078	1	1	0	0	4365.76	4579.61	4112.87	4.22634	3362.65	1540.07	508.577	4700.87	6403.02	7421.86	6223.34	55.1154	4858.23	2472.22	869.861	8110.32	123.454	311.687	122.527	328.123	298.753	302.370	303.704	299.055	8192	-8191	8192	8192	254	
77572.125	1	1	0	0	4347.08	4618.22	4081.44	4.71738	3384.53	1606.16	485.208	4715.03	6407.04	7471.83	6269.64	57.0529	4875.54	2508.07	867.188	8152.91	124.114	311.537	122.626	315.879	299.009	303.346	306.961	298.960	8192	-8191	8192	8192	254	
77572.172	1	1	0	0	4372.27	4653.19	4075.48	5.89693	3367.17	1582.37	485.948	4642.56	6428.47	7400.03	6250.99	51.2933	4857.86	2508.26	856.24	8108.28	124.225	311.062	122.560	266.571	299.288	303.933	304.959	299.274	8192	-8191	8192	8192	254	
77572.219	1	1	0	0	4346.07	4595.63	4085.78	7.27862	3342.33	1580.62	495.564	4699.22	6394.49	7417.75	6238.98	49.0962	4828.87	2494.5	874.74	8110.76	123.977	311.318	122.485	292.788	298.347	302.798	305.057	299.576	8192	-8191	8192	8192	254	
77572.266	1	1	0	0	4362.79	4596.99	4097.85	11.6884	3305.71	1542.05	493.695	4672.49	6435.59	7476.34	6254.61	50.976	4846.25	2480.19	865.188	8137.95	123.429	312.064	123.621	318.156	298.122	302.375	307.752	299.703	8192	-8191	8192	8192	254	
77572.344	1	1	0	0	4380.91	4646.23	4160.75	6.62046	3342.98	1551.5	485.282	4687.78	6435.99	7435.32	6267.52	50.6875	4870.44	2459.02	859.769	8081.63	124.184	311.090	122.232	281.146	298.667	302.794	305.777	299.064	8192	-8191	8192	8192	254	
77572.391	1	1	0	0	4412.95	4627.87	4048.13	8.6563	3420.37	1554.25	487.452	4676.01	6493.97	7479.29	6237.31	54.1875	4895.02	2467.26	863.904	8101.76	123.592	311.947	121.202	223.442	300.071	302.461	304.699	298.643	8192	-8191	8192	8192	254	
77572.438	1	1	0	0	4464.33	4602.78	4061.25	4.30046	3395.76	1501.49	487.019	4737.54	6498.76	7441.88	6225.95	53.0192	4874.5	2459.39	853.264	8140.62	123.385	311.326	121.878	235.844	298.156	302.815	302.374	299.321	8192	-8191	8192	8192	254	
77572.484	1	1	0	0	4283.6	4633.18	4141.72	1.93798	3405.92	1559.88	499.024	4671.82	6381.12	7460.51	6295.2	56.851	4859.65	2489.51	874.707	8149.93	123.427	312.354	122.890	258.983	298.459	302.526	303.813	299.154	8192	-8191	8192	8192	254	
77572.484	1	1	0	0	4363.36	4544.27	4088.95	6.28196	3337.01	1566.78	497.511	4757.83	6445.49	7395.43	6270.62	55.1538	4835.52	2474.07	869.745	8149.23	123.787	311.563	122.826	337.554	299.572	302.070	308.243	298.982	8192	-8191	8192	8192	254	
77572.531	1	1	0	0	4338.82	4584.58	4163.37	5.52057	3412.07	1577.51	466.004	4626.16	6451.47	7422.64	6265.41	52.6827	4893.79	2509.48	853.077	8092.46	124.023	311.054	123.296	268.927	298.246	302.868	304.364	299.711	8192	-8191	8192	8192	254	
77572.578	1	1	0	0	4417.02	4627.31	4056.12	1.86955	3414.43	1569.49	484.553	4748.86	6489.53	7476.07	6238.5	61.2212	4890.54	2488.83	858.409	8162.73	123.460	311.778	122.431	324.093	299.187	303.923	305.906	298.520	8192	-8191	8192	8192	254	
77572.633	1	1	0	0	4374.13	4622.52	4055.11	7.24139	3287.63	1567.05	490.228	4639.18	6470.15	7413.15	6226.08	48.4327	4791.68	2475.58	857.745	8124.26	124.707	312.117	122.344	293.617	298.559	302.056	304.479	299.744	8192	-8191	8192	8192	254	
77572.703	1	1	0	0	4401.63	4587.92	4081.53	5.17265	3354.41	1556.58	495.399	4685.84	6459.52	7437.6	6277.42	56.7019	4854.24	2495.09	863.74	8102.32	123.542	311.593	122.749	324.390	297.932	302.758	307.795	299.048	8192	-8191	8192	8192	254	
77572.750	1	1	0	0	4400.65	4568.61	4062.52	6.47224	3352.84	1553.51	471.128	4670.3	6489.32	7374.1	6242.6	56.7548	4876.01	2480.84	855.745	8136.75	124.876	311.057	122.419	236.646	299.180	303.472	304.933	299.174	8192	-8191	8192	8192	254	
77572.797	1	1	0	0	4354.06	4641.47	4133.76	5.48225	3314.36	1572.66	476.648	4716.14	6403.63	7491.78	6258.69	52.7596	4840.04	2473.94	845.24	8174.09	123.955	311.794	122.933	265.405	300.001	303.591	305.366	298.921	8192	-8191	8192	8192	254	
77572.844	1	1	0	0	4461.62	4593.3	4139.13	0.822193	3344.69	1580.17	481.467	4770.92	6472.39	7437.33	6249.06	51.8606	4869.53	2497.48	858.375	8092.42	124.046	311.166	122.485	125.546	299.076	301.633	305.631	299.460	8192	-8191	8192	8192	254	
77572.891	1	1	0	0	4397.85	4604.07	4109.69	9.55247	3345.21	1575.92	494.127	4756.52	6455.04	7397.46	6270.28	51.9808	4870.99	2501.93	869.745	8173.32	123.640	311.251	121.651	359.963	299.294	303.225	308.245	299.867	8192	-8191	8192	8192	254	
77572.945	1	1	0	0	4401.58	4658.87	4141.93	10.2852	3307.18	1560.59	489.976	4707.27	6482.85	7449.01	6243.56	56.7596	4822.93	2494.44	854.606	8086.77	123.682	311.506	122.028	317.439	299.750	303.083	305.759	300.223	8192	-8191	8192	8192	254	
77572.992	1	1	0	0	4381.32	4654.91	4116.13	4.00221	3378.06	1541	482.847	4663.01	6448.89	7478.26	6238.6	56.2981	4843.69	2480.28	856.087	8110.68	124.289	311.962	122.756	359.691	298.568	303.652	302.919	299.627	8192	-8191	8192	8192	254	
77573.039	1	1	0	0	4430.14	4645.35	4129.02	4.44485	3377.63	1559.5	484.324	4637.88	6471.5	7462.21	6257.51	56.5481	4872.97	2489.08	866.471	8037.61	123.696	311.845	122.709	347.168	299.392	301.337	307.832	299.080	8192	-8191	8192	8192	254	
77573.109	1	1	0	0	4368.32	4673.48	4127.24	8.46264	3336.43	1617.6	501.203	4732.67	6462.18	7479.59	6268.37	57.9567	4880.89	2503.63	866.76	8164.01	123.416	311.580	123.175	283.854	299.738	303.573	304.522	298.872	8192	-8191	8192	8192	254	
77573.156	1	1	0	0	4334.92	4592.61	4146.19	9.57022	3337.37	1564.2	483.123	4689.8	6445.62	7444.43	6255.38	55.4423	4832.67	2470.75	857.981	8125.37	123.713	312.235	123.073	353.538	299.558	303.142	306.996	299.570	8192	-8191	8192	8192	254	
77573.203	1	1	0	0	4451.04	4576.11	4074.03	3.9114	3381.13	1561.8	469.213	4643.31	6493.43	7435.01	6245.31	46.4856	4897.22	2484.66	846.356	8090.15	123.584	311.604	122.100	351.341	298.916	301.785	306.802	298.526	8192	-8191	8192	8192	254	
77573.258	1	1	0	0	4300.08	4605.43	4052.28	6.45342	3434.32	1568.23	500.939	4589.79	6411.18	7434.15	6215.66	54.4519	4896.62	2469.51	874.596	8065.22	123.934	311.971	122.377	331.151	298.165	302.452	305.564	299.838	8192	-8191	8192	8192	254	
77573.258	1	1	0	0	4419.25	4569	4180.1	6.15887	3347.25	1570.04	485.942	4699.59	6466.08	7438.89	6290.89	53.4712	4852.91	2495.53	863.269	8097	123.693	311.244	122.432	292.573	298.878	302.253	307.492	299.555	8192	-8191	8192	8192	254	
77573.305	1	1	0	0	4411.18	4631.72	4062.84	3.38113	3367.58	1590.55	504.81	4766.74	6477.65	7413.75	6229.78	54.2885	4869.77	2506.62	872.413	8149.18	123.413	312.171	122.133	271.479	298.989	302.033	306.304	299.605	8192	-8191	8192	8192	254	
77573.352	1	1	0	0	4396.05	4720.5	4132.51	7.43261	3409.18	1595.26	486.966	4621.33	6496.59	7483.19	6272.25	58.2452	4867.39	2500.58	843.851	8093.14	123.505	311.542	122.442	265.927	298.585	302.704	304.396	299.214	8192	-8191	8192	8192	254	
77573.398	1	1	0	0	4349.02	4617.13	4162.45	4.45045	3378.52	1596.58	472.437	4676.85	6446.67	7444.73	6278.69	59.2596	4874.14	2493.19	858.236	8109.75	123.457	311.468	122.695	261.462	298.916	300.366	308.854	298.815	8192	-8191	8192	8192	254	
77573.469	1	1	0	0	4370.59	4644.24	4111.72	11.4814	3333.26	1536.39	505.47	4642.52	6448.76	7431.55	6277.78	56.8606	4843.91	2453.83	885.264	8106.05	123.881	311.591	122.243	310.506	298.847	302.205	305.610	299.014	8192	-8191	8192	8192	254	
77573.516	1	1	0	0	4332.91	4632.2	4156.23	5.47751	3396.27	1577.96	509.137	4682.4	6412.14	7453.51	6279.89	61.6827	4855.42	2503.82	858.034	8107.87	124.371	311.970	122.685	333.331	299.711	303.775	304.997	299.571	8192	-8191	8192	8192	254	
77573.570	1	1	0	0	4395.98	4635	4048.63	9.5908	3389.88	1568.04	471.694	4672.23	6448.58	7522.16	6267.83	69.6106	4930.2	2513.47	877.692	8109.97	124.370	312.149	122.521	312.925	298.847	303.068	306.533	299.192	8192	-8191	8192	8192	254	
77573.617	1	1	0	0	4383.38	4577.67	4128.33	6.7787	3321.62	1592.26	486.592	4744.43	6473.04	7445.65	6278.95	75.149	4865.36	2503.05	875.389	8148.97	123.246	312.532	122.171	261.989	298.694	302.729	306.466	298.869	8192	-8191	8192	8192	254	
77573.664	1	1	0	0	4398.72	4641.37	4157.84	4.4036	3348.59	1543.58	507.151	4644.5	6475.03	7536.79	6316.07	77.399	4880.64	2487.76	887.534	8098.2	123.158	312.149	122.646	18.444	299.317	302.302	306.636	299.818	8192	-8191	8192	8192	254	
77573.711	1	1	0	0	4325.38	4644.58	4136.02	5.75134	3329.06	1558.62	493.166	4657.09	6449.43	7495.13	6304.16	67.1202	4841.93	2514.4	874.452	8080.01	123.914	311.441	121.751	253.324	299.545	302.741	305.367	300.226	8192	-8191	8192	8192	254	
77573.758	1	1	0	0	4438.85	4650.98	4061.08	6.41516	3351.7	1592.25	495.299	4708.82	6505.69	7501.62	6254.5	58.8606	4872.23	2504.94	868.188	8170.02	122.752	311.385	122.495	233.718	299.314	302.036	305.080	298.819	8192	-8191	8192	8192	254	
77573.805	1	1	0	0	4445.48	4627.33	4098.7	2.98584	3335.78	1600.07	468.577	4668.48	6511.88	7488.12	6260.28	53.0529	4872.09	2484.62	861.293	8104.95	123.173	312.061	121.777	58.040	299.289	301.557	303.241	299.341	8192	-8191	8192	8192	254	
77573.883	1	1	0	0	4325.98	4594.77	4106.93	7.24186	3394.39	1561.26	479.109	4723.51	6458.52	7497.34	6258.93	57.3558	4877.63	2490.88	843.409	8159.95	123.860	311.842	122.620	324.979	299.179	303.045	308.797	300.695	8192	-8191	8192	8192	254	
77573.930	1	1	0	0	4385.71	4567.93	4106.27	6.70162	3363.99	1563.85	509.412	4649.19	6462.81	7407.18	6252.81	52.9327	4855.99	2496.47	879.865	8124.67	123.484	312.030	123.100	324.748	299.309	301.866	305.571	298.780	8192	-8191	8192	8192	254	
77573.977	1	1	0	0	4322.94	4637.78	4090.31	7.20674	3328.3	1549.27	465.73	4691.44	6451.33	7435.33	6252.49	57.7933	4842.25	2500.3	865.101	8124.03	124.332	311.785	122.699	320.877	298.708	301.954	306.423	298.891	8192	-8191	8192	8192	254	
77574.023	1	1	0	0	4307.21	4640.81	4064.58	8.8655	3335.48	1548.08	490.769	4660.66	6436.42	7443.61	6216.99	68.4423	4860.94	2493	868.25	8126.8	123.358	311.326	122.871	314.004	298.799	303.353	303.059	299.736	8192	-8191	8192	8192	254	
77574.023	1	1	0	0	4374.28	4619.54	4069.67	8.09627	3368.99	1550.46	478.934	4672.88	6483.09	7421.72	6275.46	73.4471	4884.61	2471.67	867.418	8146.84	123.451	312.361	122.607	299.305	299.384	301.980	307.309	298.894	8192	-8191	8192	8192	254	
77574.070	1	1	0	0	4382.35	4554.25	4135.37	5.91825	3308.48	1581.43	479.833	4596.72	6469	7431.5	6277.16	77.3317	4839.98	2513.28	886.736	8108.25	123.448	312.225	122.201	325.568	298.940	302.670	303.248	299.560	8192	-8191	8192	8192	254	
77574.117	1	1	0	0	4383.82	4654.39	4092.71	8.07157	3370.1	1549.04	447.903	4770.72	6505.55	7468.78	6293.01	83.4183	4885.15	2509.45	878.048	8222.15	124.363	311.283	122.027	79.538	299.046	301.867	306.315	299.155	8192	-8191	8192	8192	254	
77574.164	1	1	0	0	4325.65	4617.52	4126.84	9.98463	3364.53	1548.84	493.6	4665.96	6456.06	7484.13	6290.71	94.274	4913.88	2532.31	906.822	8164.71	123.430	312.072	122.759	347.938	298.481	302.119	306.348	299.280	8192	-8191	8192	8192	254	
77574.242	1	1	0	0	4330.15	4668.9	4145.8	10.033	3385.76	1519.69	478.839	4693.64	6478.52	7487.95	6307.5	115.024	4925.51	2533.35	925.63	8199.19	124.158	312.170	122.481	326.511	298.295	301.320	306.127	298.372	8192	-8191	8192	8192	254	
77574.289	1	1	0	0	4392.76	4597.33	4145.94	14.2156	3364.49	1549.01	471.087	4651.3	6545.06	7473.91	6324.42	120.192	4940.45	2531.61	919.832	8182.09	123.519	312.711	122.329	4.820	298.663	302.780	305.725	299.397	8192	-8191	8192	8192	254	
77574.336	1	1	0	0	4381.89	4611.51	4158.04	5.31882	3317.55	1561.6	487.793	4693.46	6515.82	7493.75	6304.99	134.312	4924.53	2539.97	933.389	8214.14	123.737	311.447	121.964	87.818	299.607	302.918	306.723	300.115	8192	-8191	8192	8192	254	
77574.383	1	1	0	0	4442.89	4565.88	4137.91	19.1533	3410.67	1543.5	489.733	4630.71	6552.52	7526.74	6308.32	123.918	4969.82	2522.46	911.168	8141.34	123.789	312.124	122.325	313.689	299.643	303.291	305.045	299.725	8192	-8191	8192	8192	254	
77574.430	1	1	0	0	4327.36	4536.39	4142.42	4.53985	3327.12	1559.08	473.758	4699.42	6479.58	7446.3	6337.49	119.25	4893.65	2532.02	909.385	8204.24	123.209	312.077	122.876	355.521	299.396	303.032	305.610	298.816	8192	-8191	8192	8192	254	
77574.477	1	1	0	0	4379.31	4592.77	4180.47	11.0837	3358.36	1593.66	500.215	4685.63	6503.38	7498.84	6339.93	111.966	4930.39	2560.31	944.399	8185.88	123.687	311.872	122.718	29.778	298.961	302.865	304.311	298.611	8192	-8191	8192	8192	254	
77574.523	1	1	0	0	4411.09	4587.63	4119.47	4.5102	3374.89	1598.55	474.936	4674.14	6514.09	7512.91	6311.75	108.101	4923.74	2562.6	916.731	8197.47	122.779	310.966	122.770	300.824	298.410	302.296	305.426	298.698	8192	-8191	8192	8192	254	
77574.570	1	1	0	0	4347.2	4601.37	4089.81	2.93566	3335.69	1597.96	485.368	4700.27	6465.48	7488.79	6313.24	109.188	4865.5	2534.8	910.75	8156.71	124.147	311.978	122.654	66.662	298.822	303.121	303.669	298.608	8192	-8191	8192	8192	254	
77574.648	1	1	0	0	4366.19	4603.75	4072.11	9.21871	3387.66	1572.05	517.347	4722.44	6513.26	7501.32	6291.07	112.192	4929.24	2539.79	940.442	8175.61	123.595	312.180	122.279	303.100	298.606	302.920	308.178	299.566	8192	-8191	8192	8192	254	
77574.695	1	1	0	0	4385.62	4677.01	4110.41	8.50466	3389.02	1581.45	486.886	4628.57	6523.23	7555.86	6312.12	106.846	4917.28	2528.07	921.115	8156.03	124.009	311.074	122.927	290.886	299.233	302.412	307.355	299.260	8192	-8191	8192	8192	254	
77574.742	1	1	0	0	4423.07	4637.15	4151.49	10.8719	3322.09	1587.12	476.949	4703.75	6507.99	7510.92	6361.81	110.832	4893.01	2529.87	916.702	8202.81	123.604	311.185	122.336	311.541	298.741	303.222	303.658	299.014	8192	-8191	8192	8192	254	
77574.789	1	1	0	0	4396.35	4671.01	4120.52	2.81218	3368.6	1588.84	472.573	4663.93	6512.33	7546	6349.38	118.74	4913.79	2556.54	930.101	8166.73	123.227	311.765	122.367	225.924	299.653	303.140	306.995	299.744	8192	-8191	8192	8192	254	
77574.789	1	1	0	0	4440.87	4616.48	4070.86	2.91436	3351.57	1532.49	477.383	4744.35	6519.15	7483.83	6300.69	114.072	4940.8	2536	922.812	8185.25	123.500	312.416	123.024	204.693	299.091	302.859	305.607	299.739	8192	-8191	8192	8192	254	
77574.836	1	1	0	0	4375.8	4649.25	4081.04	4.11847	3361.63	1585.5	458.48	4724.11	6498.5	7530.3	6334.1	122.154	4949.34	2542.79	905.197	8205.39	123.625	312.589	123.240	272.536	298.523	302.894	303.576	298.947	8192	-8191	8192	8192	254	
77574.883	1	1	0	0	4391.47	4580.47	4095.77	11.6117	3333.32	1594.7	492.623	4678.04	6509.1	7495.84	6284.11	117.726	4899.73	2574.36	914.12	8174.78	123.144	312.648	122.592	292.543	298.294	302.955	305.924	298.695	8192	-8191	8192	8192	254	
77574.938	1	1	0	0	4377.48	4594.57	4064.15	6.7229	3344.1	1583.1	474.196	4711.4	6503.81	7497.66	6287.17	111.712	4904.12	2552.16	930.865	8159.65	123.320	311.309	122.262	297.029	298.100	302.222	305.276	299.200	8192	-8191	8192	8192	254	
77575.008	1	1	2	0	4440.98	4602.13	4095.91	7.79097	3397.88	1569.3	504.15	4734.12	6566	7514.43	6322.49	114.913	4930.98	2558.27	926.481	8199.55	123.513	311.893	122.530	350.543	298.995	301.628	307.624	298.673	8192	-8191	8192	8192	254	
77575.055	1	1	0	0	4391.74	4584.06	4140.45	5.43258	3364.51	1567.94	508.606	4628.88	6542.62	7506.78	6361.48	119.168	4924.02	2579.8	945.37	8145.25	123.503	311.094	121.616	279.391	298.967	302.150	307.772	298.436	8192	-8191	8192	8192	254	
77575.102	1	1	0	0	4341.55	4643.38	4064.2	13.9606	3356.21	1590.52	485.968	4668.02	6493.1	7552.11	6310.23	132.202	4932.07	2582.61	939.505	8222.76	123.589	312.087	122.486	274.789	299.061	301.998	305.546	299.503	8192	-8191	8192	8192	254	
77575.148	1	1	0	0	4363.99	4657.85	4186.39	16.7336	3372.3	1569.24	483.682	4822.76	6506.11	7571.71	6369.11	146.769	4938.95	2578.16	945.938	8287.52	123.813	312.563	122.282	357.233	298.844	301.784	307.819	298.731	8192	-8191	8192	8192	254	
77575.195	1	1	0	0	4340.04	4603.64	4081.24	10.6279	3337.15	1589.66	472.028	4648.46	6527.05	7542.83	6313.89	141.567	4952.28	2569.42	953.553	8143.28	123.588	311.606	122.744	346.495	298.975	302.160	305.439	299.151	8192	-8191	8192	8192	254	
77575.250	1	1	0	0	4357.69	4578.98	4121.31	12.739	3372.59	1511.32	478.265	4729.42	6510.82	7488.06	6350.2	137.144	4954.21	2530.63	953.822	8215.74	123.816	311.811	122.702	12.110	299.453	302.475	306.677	298.945	8192	-8191	8192	8192	254	
77575.297	1	1	0	0	4338.25	4594.04	4171.23	8.71269	3368.54	1564.49	491.541	4785.99	6524.46	7496.05	6366.93	142.399	4967.61	2581.89	957.587	8265.58	123.610	312.173	122.785	277.642	298.158	302.756	305.686	298.861	8192	-8191	8192	8192	254	
77575.344	1	1	0	0	4379.37	4576.97	4031.02	19.803	3374.81	1596.23	482.935	4696.95	6544.87	7515.04	6331.36	137.923	4937.07	2573.2	948.548	8218.87	124.084	311.430	123.076	315.071	299.253	303.919	304.630	299.264	8192	-8191	8192	8192	254	
77575.414	1	1	0	0	4402.79	4613.67	4151.88	4.31324	3374.2	1575.05	484.37	4646.75	6570.38	7547.58	6363.29	128.558	4947.53	2549.13	935.635	8182.13	123.419	310.899	121.858	187.967	298.764	302.885	306.643	299.572	8192	-8191	8192	8192	254	
77575.461	1	1	0	0	4363.89	4627.68	4135.45	9.14206	3347.87	1640.16	489.425	4787.19	6502.45	7523.57	6282.64	111.971	4907.81	2588.44	918.024	8230.98	123.487	311.654	122.043	334.584	298.029	302.747	306.760	298.235	8192	-8191	8192	8192	254	
77575.508	1	1	0	0	4372.22	4639.73	4105.38	5.12516	3340.27	1588.51	490.769	4687.56	6516.56	7521.8	6290.08	93.3558	4878.65	2513.01	898.38	8159.62	123.555	311.252	122.519	310.406	299.461	303.554	301.530	299.223	8192	-8191	8192	8192	254	
77575.562	1	1	0	0	4461.99	4660.92	4103.67	11.8559	3373.11	1567.86	464.368	4689.98	6538.08	7474.75	6267.05	80.3173	4934.57	2511.78	881.784	8161.85	123.976	310.861	122.557	339.091	299.148	303.063	305.282	298.960	8192	-8191	8192	8192	254	
77575.555	1	1	0	0	4333.44	4616.28	4128.55	4.74842	3367.85	1539.47	488.147	4780.95	6447.26	7413.3	6279.12	74.1971	4874.59	2498.31	882.601	8194.36	124.190	311.450	122.310	168.716	298.871	302.228	304.801	299.499	8192	-8191	8192	8192	254	
77575.609	1	1	0	0	4326.22	4587.75	4140.79	6.92183	3354.27	1542.51	473.694	4693.84	6438.27	7474.8	6326.1	71.9471	4879.55	2487.17	874.034	8113.4	124.152	311.512	122.495	319.358	298.979	303.248	305.113	299.601	8192	-8191	8192	8192	254	
77575.656	1	1	0	0	4353.44	4606.75	4119.56	11.8866	3258.16	1563.65	508.383	4644.04	6492.5	7429.33	6264.2	75.7837	4836.22	2496.47	907.49	8090.51	123.798	311.865	123.213	293.322	299.291	303.773	304.455	300.418	8192	-8191	8192	8192	254	
77575.703	1	1	0	0	4373.41	4598.58	4085.64	11.1588	3395.04	1612.49	490.666	4676.61	6494.57	7473.69	6281.59	81.6202	4903.15	2530.38	898.615	8134.79	122.455	311.861	122.524	316.744	298.966	302.402	303.838	299.203	8192	-8191	8192	8192	254	
77575.773	1	1	0	0	4371.52	4620.03	4064.94	4.91148	3331.06	1580.12	472.553	4728.53	6491.02	7471.4	6245.21	79.25	4861.16	2512.46	873.596	8129.38	123.215	311.638	122.553	269.047	299.838	301.516	308.752	298.734	8192	-8191	8192	8192	254	
77575.820	1	1	0	0	4363.5	4592.45	4150.85	10.415	3386.19	1554.7	469.815	4686.15	6483.79	7432.76	6314.05	91.1923	4924.2	2503.69	877.909	8181.41	124.330	311.540	123.076	326.676	299.279	301.786	306.077	299.252	8192	-8191	8192	8192	254	
77575.867	1	1	0	0	4376.81	4644	4124.6	3.88115	3413.06	1541.44	502.841	4677.51	6500.99	7483.32	6306.62	110.197	4938.68	2537.89	934.49	8203.18	124.154	311.436	122.741	315.765	298.564	302.198	305.389	298.695	8192	-8191	8192	8192	254	
77575.922	1	1	0	0	4391.35	4640.72	4070.03	7.58001	3398.94	1564.28	495.661	4669.71	6540.76	7509.14	6312.45	138.149	4965.41	2559.41	966.755	8217.98	124.066	312.031	121.205	250.288	298.847	302.106	305.221	299.340	8192	-8191	8192	8192	254	
77575.969	1	1	0	0	4387.34	4564.86	4165.93	14.7391	3328.55	1571.59	508.618	4621.73	6568.1	7508.05	6344.94	161.034	4970.04	2606.53	961.197	8209.45	123.281	310.961	122.054	324.975	299.210	301.826	307.119	299.241	8192	-8191	8192	8192	254	
77576.016	1	1	0	0	4376.14	4666.97	4157.12	5.34375	3418.25	1606.13	505.479	4632.86	6572.5	7522.37	6425.05	174.495	5015.27	2641.38	987.692	8233.41	123.478	312.068	122.503	253.835	297.670	301.460	305.864	299.122	8192	-8191	8192	8192	254	
77576.086	1	1	0	0	4357.83	4597.17	4079.42	8.24766	3368.65	1516.28	489.274	4689.75	6595.94	7577.49	6368.67	190.462	5028.38	2602.23	1030.56	8225.89	123.019	311.590	122.230	282.818	298.727	302.994	304.809	299.885	8192	-8191	8192	8192	254	
77576.133	1	1	0	0	4342.6	4569.85	4100.91	6.81782	3364.69	1599.56	468.273	4645.3	6631.43	7580.11	6402.81	234.534	5044.12	2697.54	1071.14	8295.48	123.258	312.022	122.095	21.593	299.106	302.398	306.496	299.888	8192	-8191	8192	8192	254	
77576.180	1	1	0	0	4417.77	4626.34	4123.67	20.2609	3318.42	1561.26	505.234	4633.93	6680.63	7714.88	6498.51	295.351	5115.57	2736.62	1131.76	8343.63	123.291	311.673	122.942	183.843	298.991	303.422	306.616	299.089	8192	-8191	8192	8192	254	
77576.227	1	1	0	0	4341.32	4601.56	4099.01	3.88575	3331.15	1555.43	473.488	4458.05	6756.21	7777.97	6539.61	344.159	5083.32	2730.34	1146.64	8166.79	123.979	311.814	121.891	57.410	299.098	303.279	306.123	298.736	8192	-8191	8192	8192	254	
77576.281	1	1	0	0	4312.85	4531.75	3989.19	27.7266	3301.09	1534.23	473.84	4569.98	6671.34	7605.26	6415.94	352.207	5079.82	2745.72	1166.14	8250.82	123.153	312.232	122.781	3.992	298.702	303.814	305.494	299.342	8192	-8191	8192	8192	254	
77576.328	1	1	0	0	4291.77	4575.97	4016.79	9.42171	3307.28	1524.75	516.172	4597.5	6657.41	7682.97	6454.03	384.601	5095.26	2775.5	1196.33	8293.26	123.125	311.874	122.292	344.889	298.929	301.253	308.363	299.456	8192	-8191	8192	8192	254	
77576.328	1	1	0	0	4204.74	4453.71	3942.37	12.4413	3387.76	1593.56	503.634	4619.77	6632.06	7595	6455.48	429.072	5234.44	2894.3	1266.96	8524.15	123.935	312.175	122.784	66.462	298.877	302.305	304.104	298.997	8192	-8191	8192	8192	254	
77576.375	1	1	0	0	4343.52	4613.25	4095.5	16.5086	3305.11	1569	486.505	4693.69	6848.61	7917.87	6715.28	486.899	5284.68	2914.07	1328.15	8608.69	123.982	312.057	122.363	22.067	299.713	303.089	305.974	299.285	8192	-8191	8192	8192	254	
77576.445	1	1	0	0	4353.43	4525.11	4156.74	11.79	3297.18	1511.63	445.683	4577.1	6902.11	7871.79	6690.56	530.865	5265.18	2923.07	1335	8448.65	123.331	312.955	122.867	280.470	299.591	302.488	310.416	299.248	8192	-8191	8192	8192	254	
77576.492	1	1	0	0	4252.93	4480.82	3964.46	9.74872	3215.31	1497.07	500.676	4546.76	6861.38	7773.3	6595.95	578.428	5234.43	2945.87	1380.34	8486.42	123.642	311.426	122.976	298.012	299.646	301.965	305.415	298.881	8192	-8191	8192	8192	254	
77576.539	1	1	0	0	4228.68	4579.25	4048.69	10.747	3286.94	1495.9	503.1	4601.45	6830.02	7880.11	6638.38	597.913	5312.27	2952.12	1392.71	8531.9	123.531	311.672	122.521	191.796	298.187	302.627	304.216	299.734	8192	-8191	8192	8192	254	
77576.594	1	1	0	0	4276.71	4501.71	4047.99	11.9216	3300.5	1558.74	503.13	4796.09	6858.64	7840.33	6706.46	611.76	5347.68	3024.45	1443.35	8805.31	123.680	311.543	122.355	192.425	299.368	303.562	308.500	298.952	8192	-8191	8192	8192	254	
77576.641	1	1	0	0	4433.27	4719.62	4212.24	18.4048	3427.45	1562.62	520.268	4822.15	7125.82	8191.1	6994.07	637.567	5584.42	3145.74	1498.98	8994.95	123.852	311.742	122.528	172.917	299.620	301.739	306.047	299.013	8192	-8191	8192	8192	254	
77576.688	1	1	0	0	4636.61	4843.96	4284.11	5.09326	3540.78	1616.52	494.479	4272.51	7366.44	8401.88	7148.33	662.409	5675.74	3130.74	1433.21	7928.83	123.913	312.231	121.656	205.189	299.061	303.939	303.852	298.915	8192	-8191	8192	8192	254	
77576.734	1	1	0	0	3371.34	2604.53	1416.37	12.8782	250.414	52.1103	13.8143	33.329	5461.28	4492.62	2534.55	279.534	586.774	291.077	219.457	249.173	123.457	310.980	121.578	133.303	301.711	318.864	321.147	292.652	8192	-8191	8192	8192	254	
77576.781	1	1	0	0	11.3575	6.22446	9.72088	5.65258	9.19092	12.1894	13.6442	8.38564	200.168	203.38	196.553	203.072	201.288	206.154	210.899	214.62	146.333	75.691	6.118	107.089	42.701	273.630	337.068	275.253	8192	-8191	8192	8192	254	
77576.852	1	1	0	65536	13.5419	10.1427	7.16166	2.89425	22.577	43.9481	138.446	69.0728	223.115	235.452	288.351	437.49	858.13	2354.67	10340.2	23810.6	57.050	359.851	329.708	143.892	101.685	78.931	129.698	82.746	8192	-8191	8192	8192	254	
77576.906	1	1	0	65536	172.795	152.043	36.2714	0	0	0	0	0	24024.2	24024.7	32365.6	32767	32767	32767	32767	32767	357.185	31.605	281.861	180.000	180.000	180.000	180.000	180.000	8192	-8191	8192	8192	254	
77576.953	1	1	0	65536	0	0	0	0	0	0	0	0	32767	32767	32767	32767	32767	32767	32767	32767	180.000	180.000	180.000	180.000	180.000	180.000	180.000	180.000	8192	-8191	8192	8192	254	
77577.000	1	1	0	65536	0	0	0	0	0	0	0	0	32767	32767	32767	32767	32767	32767	32767	32767	180.000	180.000	180.000	180.000	180.000	180.000	180.000	180.000	8192	-8191	8192	8192	254	
77577.047	1	1	0	65536	0	0	104.624	132.481	59.1962	112.013	109.517	36.386	32767	32767	26429.6	20424.2	17649.2	19749.1	12358	7817.68	180.000	180.000	334.546	270.202	27.484	227.107	308.511	265.282	8192	-8191	8192	8192	254	
77577.094	1	1	0	65536	80.4515	52.213	33.2685	2.94436	51.6779	6.29387	74.3741	37.0251	6556.45	6524.95	6770.07	6821.77	6410.76	5513.25	4166.4	2733.72	175.701	162.429	248.993	254.161	28.522	178.031	331.575	328.592	8192	-8191	8192	8192	254	
77577.094	1	1	0	0	22.5257	21.9827	10.2193	0.924643	14.6948	10.3332	8.92343	7.71762	1716.3	1098.91	705.49	453.524	311.625	250.361	215.601	209.418	148.546	309.820	313.251	325.807	322.015	14.038	171.091	33.385	8192	-8191	8192	8192	254	
77577.141	1	1	0	0	6.85244	12.8135	9.99471	7.21643	4.45857	4.35588	6.97546	7.27633	191.284	187.957	203.365	202.663	200.832	183.654	189.274	174.048	105.934	148.277	271.794	94.224	242.373	101.722	155.015	88.990	8192	-8191	8192	8192	254	
77577.188	1	1	0	0	9.70204	15.3914	6.73975	14.3487	1.59148	3.7461	4.74041	3.75814	166.37	164.596	163.226	166.149	160.014	166.933	176	165.082	270.906	24.939	154.905	94.983	225.462	195.229	54.926	35.268	8192	-8191	8192	8192	254	
77577.234	1	1	0	0	14.6434	17.2558	6.49779	7.03878	5.65922	6.61314	11.4968	2.6234	166.067	168.202	170.293	166.596	160.058	155.822	154.582	148.418	64.287	97.603	93.509	254.276	2.299	356.070	131.935	94.636	8192	-8191	8192	8192	254	
77577.312	1	1	0	0	4.02833	4.61333	6.58761	3.19051	7.00125	9.37533	6.34181	8.6898	145.784	150.005	139.904	145.793	142.793	137.25	140.582	139.279	172.111	331.222	292.723	234.165	298.180	303.848	140.001	284.820	8192	-8191	8192	8192	254	
77577.359	1	1	0	0	8.77348	5.78157	7.59347	2.91845	11.1317	5.28205	7.82146	9.96289	136.014	148.808	149.413	145.909	149.712	144.923	147.481	158.442	150.735	238.355	120.471	48.291	232.443	186.183	58.456	247.030	8192	-8191	8192	8192	254	
77577.406	1	1	0	0	4.71536	15.3223	23.6634	7.47471	76.6483	80.8371	46.0971	775.556	151.514	154.812	170.981	156.88	289.284	346.346	375.663	1752.51	8.568	290.669	124.221	206.386	304.508	310.849	316.827	304.512	8192	-8191	8192	8192	254	
77577.453	1	1	0	0	913.824	1015.7	899.041	6.88721	785.024	383.447	103.288	1125.86	1851.45	2254.87	1989.27	599.865	1736.64	1176.85	764.894	2515.63	127.288	316.683	130.498	225.384	306.102	302.121	315.601	305.741	8192	-8191	8192	8192	254	
77577.500	1	1	0	0	968.304	977.015	936.996	12.6871	805.024	408.246	116.373	1187.36	2014.13	2194.12	1954.26	567.962	1714.34	1191.24	793.548	2623.65	129.905	317.994	129.106	58.642	302.648	311.183	307.358	303.470	8192	-8191	8192	8192	254	
77577.555	1	1	0	0	1042.51	1091.16	976.885	14.2924	819.527	401.768	119.69	1238.4	2078.32	2338.75	2064.78	589.269	1798.97	1249.23	811.812	2711	128.366	317.644	129.594	148.225	304.550	308.332	306.596	305.201	8192	-8191	8192	8192	254	
77577.625	1	1	0	0	1090.72	1145.64	1004.71	12.8817	834.474	393.606	137.406	1160.48	2161.69	2407.75	2107.86	607.74	1820.76	1228.46	824.048	2702.19	129.055	316.992	127.715	310.690	304.728	309.058	314.864	306.444	8192	-8191	8192	8192	254	
77577.672	1	1	0	0	1035.9	1147.92	987.15	8.10679	827.49	384.037	138.567	1204.4	2159	2381.15	2079.14	568.981	1787.62	1216.75	773.202	2646.21	128.308	317.374	126.378	304.822	304.841	307.502	306.043	302.957	8192	-8191	8192	8192	254	
77577.719	1	1	0	0	1081.69	1121.89	979.648	18.353	834.036	395.108	126.704	1223.12	2111.14	2322.09	2029.95	521.678	1714.26	1152.66	724.385	2605.92	128.700	319.487	128.472	282.475	303.468	308.211	309.561	303.618	8192	-8191	8192	8192	254	
77577.766	1	1	0	0	1034.23	1118.21	973.598	8.3896	838.087	415.545	116.334	1161.36	2007.08	2260.21	1964.18	477.851	1669.01	1075.66	640.567	2405.06	129.854	316.404	129.026	188.917	304.650	306.663	310.746	306.112	8192	-8191	8192	8192	254	
77577.812	1	1	0	0	976.105	1014.18	938.947	4.15992	776.227	370.636	107.17	1091.12	1863.22	2026.63	1771.08	359.707	1452.41	906.731	527.13	2203.57	129.737	318.957	127.429	277.824	305.884	309.219	315.678	304.454	8192	-8191	8192	8192	254	
77577.859	1	1	0	0	936.008	977.835	879.521	11.4259	746.685	381.606	116.31	1112.5	1687.75	1836.68	1575.88	262.048	1313.74	806.24	421.986	2078.46	130.233	319.758	127.742	283.294	302.597	306.687	311.116	303.829	8192	-8191	8192	8192	254	
77577.859	1	1	0	0	957.729	961.111	879.662	3.99908	754.735	374.237	117.387	1094.23	1595.13	1722.62	1496.19	176.361	1252.63	733.231	358.63	2007.46	129.023	318.808	128.165	1.773	303.679	309.195	315.870	305.600	8192	-8191	8192	8192	254	
77577.914	1	1	0	0	929.089	914.678	880.892	6.68122	738.44	364.467	112.4	1079.29	1493.56	1642.4	1446.35	131.072	1189.27	685.25	309.764	1954.34	129.166	318.201	129.779	324.292	302.702	306.486	313.745	305.607	8192	-8191	8192	8192	254	
77577.953	1	1	0	0	918.722	918.434	857.594	10.446	786.154	375.964	110.699	1075.31	1474.82	1587.57	1411.61	101.077	1176.65	658.337	279.962	1922.39	129.060	318.928	128.605	126.293	305.914	307.706	305.205	302.649	8192	-8191	8192	8192	254	
77578.008	1	1	0	0	923.743	912.177	867.269	5.84358	742.587	343.988	116.28	1057.09	1430.21	1579.91	1366.32	80.9663	1116.86	616.091	263.159	1893.09	129.606	318.284	129.745	312.336	303.059	307.184	315.942	304.305	8192	-8191	8192	8192	254	
77578.078	1	1	0	0	922.735	952.882	836.242	5.57224	768.438	374.133	108.082	1082.85	1408.69	1583.34	1337.37	63.8558	1132.85	624.505	247.404	1908.54	130.174	317.632	128.374	269.138	304.006	303.862	307.372	304.977	8192	-8191	8192	8192	254	
77578.125	1	1	0	0	905.402	956.423	829.775	0.806546	780.274	371.404	111.107	1030.35	1402.49	1558.55	1340.16	66.1058	1139.34	628.865	245.918	1869.37	130.350	318.138	127.739	230.651	303.767	307.759	308.578	303.899	8192	-8191	8192	8192	254	
77578.172	1	1	0	0	918.644	914.174	837.436	5.68861	759.868	362.484	109.854	1068.69	1400.59	1542.23	1340.44	52.5433	1122.13	610.255	244.029	1893.49	129.203	317.053	127.035	203.837	303.659	311.722	312.747	305.369	8192	-8191	8192	8192	254	
77578.219	1	1	0	0	908.019	948.807	861.346	1.32708	727.369	364.166	108.335	1094.55	1386.94	1565.1	1357.38	54.8317	1094	615.962	243.106	1895.74	129.477	316.899	129.249	45.424	304.928	310.149	308.153	304.210	8192	-8191	8192	8192	254	
77578.273	1	1	0	0	905.037	947.811	856.531	6.5356	743.301	357.045	104.709	1027.07	1402.22	1570.78	1348.33	59.399	1109.55	609.904	251.452	1877.98	131.266	317.746	128.934	272.065	304.359	302.960	308.509	305.684	8192	-8191	8192	8192	254	
77578.320	1	1	0	0	918.842	914.885	856.621	1.21023	711.653	353.771	112.036	1032.21	1401.24	1549.72	1359.37	70.1106	1110.54	622.923	268.12	1891.38	128.818	317.119	127.711	116.320	303.776	307.529	312.670	303.928	8192	-8191	8192	8192	254	
77578.367	1	1	0	0	903.895	931.859	859.965	3.69288	748.464	361.076	101.209	1034.43	1410.43	1572.58	1371.15	82.0673	1148.01	635.346	272.466	1906.08	129.509	318.232	127.101	313.506	303.414	309.493	305.842	304.172	8192	-8191	8192	8192	254	
77578.414	1	1	0	0	904.534	962.37	850.797	7.90072	727.907	354.842	106.513	1063.58	1421.5	1596.46	1372.52	102.865	1143.69	645.106	284.221	1937.62	130.026	319.460	127.922	330.148	304.816	305.372	315.867	304.120	8192	-8191	8192	8192	254	
77578.484	1	1	0	0	872.717	928.812	841.399	5.61477	724.98	371.255	121.114	1066.73	1422.87	1616.71	1385.71	116.389	1150.2	676.413	299.452	1958.55	129.926	317.240	127.733	122.749	305.006	307.825	308.539	306.304	8192	-8191	8192	8192	254	
77578.531	1	1	0	0	902.986	933.533	840.745	8.05839	709.176	380.056	112.192	1030.93	1455.9	1606.06	1384.8	120.784	1160.99	677.356	308.736	1928.89	129.619	317.268	128.718	194.916	305.878	311.033	310.155	304.621	8192	-8191	8192	8192	254	
77578.586	1	1	0	0	919.131	920.655	859.647	6.1237	723.455	351.507	114.33	1058.5	1451.97	1597.55	1387.36	109.63	1146.76	657.159	297.356	1899.27	128.320	317.772	128.903	265.144	304.835	308.781	314.188	305.141	8192	-8191	8192	8192	254	
77578.633	1	1	0	0	892.392	925.661	841.591	4.16353	729.72	361.505	115.336	1050.48	1417.8	1588.94	1354.9	76.0625	1122.79	628.673	258.779	1888.95	129.771	319.023	127.541	80.020	305.154	305.570	314.071	303.541	8192	-8191	8192	8192	254	
77578.633	1	1	0	0	884.478	930.84	856.768	5.1489	711.125	352.817	118.149	1057	1391.24	1575.12	1338.06	62.625	1093.51	608.312	233.769	1872.23	129.834	318.523	129.488	262.090	305.023	308.009	305.102	301.743	8192	-8191	8192	8192	254	
77578.680	1	1	0	0	927.036	904.456	850.601	3.7589	737.305	355.353	110.187	1061.35	1402.13	1524.02	1326.15	54.7019	1095.53	594.062	232.817	1867.35	130.346	318.649	128.506	111.264	302.586	309.365	311.552	303.374	8192	-8191	8192	8192	254	
77578.750	1	1	0	0	927.164	917.734	853.515	1.92291	748.477	359.771	108.006	1059.6	1387.43	1517.08	1336.53	51.3894	1105.5	594.822	224.298	1863.24	129.531	317.781	128.396	99.557	303.984	307.313	313.780	304.510	8192	-8191	8192	8192	254	
77578.797	1	1	0	0	913.501	948.746	826.105	5.24348	733.189	365.947	115.125	1066.87	1367.28	1539.87	1311.93	48.649	1088.9	603.322	243.062	1880.14	129.822	318.396	127.492	161.399	304.606	307.348	309.313	305.841	8192	-8191	8192	8192	254	
77578.844	1	1	0	0	884.363	941.553	852.16	2.38656	748.958	357.405	108.692	1063.28	1360.39	1554.43	1331.01	48.2837	1100.53	595.904	233.106	1888.02	128.618	318.299	128.968	280.647	303.927	307.850	311.581	303.183	8192	-8191	8192	8192	254	
77578.891	1	1	0	0	866.306	933.378	831.934	4.69539	752.992	357.976	108.53	1069.11	1378.65	1531.1	1324.28	56.851	1114.64	600.279	252.74	1895.04	129.647	317.901	126.686	233.995	303.166	308.842	311.831	305.054	8192	-8191	8192	8192	254	
77578.945	1	1	0	0	877.52	962.108	878.171	4.3674	702.175	363.496	106.293	1069.74	1363.7	1576.38	1340.58	59.0433	1086.05	605.207	232.654	1873.97	130.411	319.274	128.723	162.262	304.278	306.836	312.382	304.216	8192	-8191	8192	8192	254	
77578.992	1	1	0	0	915.431	958.839	834.008	11.7133	753.094	364.703	113.778	1046.95	1378.23	1563.24	1326.78	53.8558	1101.72	605.49	234.462	1858.76	128.372	318.411	128.565	301.951	302.862	306.750	313.565	302.893	8192	-8191	8192	8192	254	
77579.039	1	1	0	0	898.991	916.016	830.327	1.66052	742.843	362.077	105.301	1070.26	1355.41	1519.55	1323.03	43.3894	1100.42	586.442	235.899	1863.89	130.504	317.918	127.154	290.415	304.332	309.279	308.746	303.853	8192	-8191	8192	8192	254	
77579.086	1	1	0	0	886.245	945.885	871.489	2.7397	712.597	366.686	108.078	1083.25	1340.39	1552.75	1333.67	41.4567	1076.1	602.173	229.644	1881.17	131.105	316.793	128.200	236.855	302.983	310.573	310.452	304.340	8192	-8191	8192	8192	254	
77579.133	1	1	0	0	877.864	954.564	874.409	6.15379	720.665	348.738	105.68	1076.57	1343.27	1543.33	1345.74	42.351	1070.47	588.332	221.668	1887.33	129.112	317.802	129.684	301.104	305.726	307.658	309.562	304.482	8192	-8191	8192	8192	254	
77579.180	1	1	0	0	902.782	918.206	839.074	6.88263	734.784	348.027	103.621	1061.56	1364.78	1514.53	1316.83	37.2837	1092.71	590.913	222.798	1844.39	128.819	317.983	129.292	301.499	303.630	309.049	309.135	303.861	8192	-8191	8192	8192	254	
77579.258	1	1	0	0	906.542	954.999	851.518	4.1068	741.328	355.512	100.652	1043.53	1363.19	1547.22	1319.73	40.976	1081.58	585.827	221.774	1863.74	129.536	318.615	127.760	87.923	304.594	305.593	310.954	305.478	8192	-8191	8192	8192	254	
77579.305	1	1	0	0	922.25	936.182	869.294	4.09899	748.368	333.319	119.229	1048.56	1370.69	1525.52	1327.19	46.1106	1084.92	593.106	232.649	1870.33	130.231	318.599	128.882	191.507	304.704	307.743	311.077	303.843	8192	-8191	8192	8192	254	
77579.352	1	1	0	0	914.341	932.775	870.456	1.48263	741.069	357.207	109.625	1069.78	1375.36	1543.03	1313.68	40.2019	1091.34	583.875	229.216	1849.85	127.392	318.019	127.751	29.108	305.490	306.037	311.037	305.303	8192	-8191	8192	8192	254	
77579.398	1	1	0	0	891.127	900.273	852.39	3.32904	747.079	346.392	110.232	1056.13	1356.67	1511.89	1323.19	41.0865	1093.26	597.952	225.399	1866.06	129.253	317.864	128.578	350.945	304.438	308.416	314.861	303.175	8192	-8191	8192	8192	254	
77579.398	1	1	0	0	906.022	950.118	872.136	6.40355	719.826	361.105	117.376	1118.73	1370.32	1536.86	1317.76	39.1971	1086.76	598.014	228.428	1888.34	129.998	319.604	128.414	31.946	304.757	310.042	310.849	304.678	8192	-8191	8192	8192	254	
77579.445	1	1	0	0	906.483	929.088	875.428	4.788	707.278	367.815	113.604	1073.97	1356.7	1518.25	1337.36	38.2308	1081.21	599.284	229.731	1879.89	130.352	318.246	129.301	261.109	306.312	308.964	310.555	304.277	8192	-8191	8192	8192	254	
77579.516	1	1	3	0	918.915	938.999	873.677	3.82348	730.749	358.961	103.813	1038.79	1378.56	1547.31	1337.19	40.0577	1083.1	587.553	217.389	1852.92	129.814	318.262	127.828	283.651	304.292	310.717	317.329	304.834	8192	-8191	8192	8192	254	
77579.570	1	1	0	0	896.563	924.025	848.559	1.74362	726.987	340.051	112.883	1072.34	1367.19	1521.29	1317.34	43.7452	1070.55	583.827	222.75	1873.17	129.534	317.094	128.166	114.699	305.326	309.380	312.409	303.578	8192	-8191	8192	8192	254	
77579.594	1	1	0	0	904.142	949.954	813.471	5.97726	722.128	343.528	108.972	1052.64	1360.83	1543.3	1306.92	44.5721	1082.14	591.274	220.524	1856.75	128.427	317.432	127.757	213.898	304.767	310.615	312.535	304.875	8192	-8191	8192	8192	254	
77579.641	1	1	0	0	919.44	928.037	825.03	5.44211	724.732	350.118	97.6227	1065.46	1369.41	1522.75	1310.18	40.1298	1077.75	596.197	221.596	1873.19	129.652	319.448	127.857	253.154	304.755	307.356	307.794	304.962	8192	-8191	8192	8192	254	
77579.711	1	1	0	0	904.482	941.579	859.311	0.680041	752.245	357.89	113.044	1088.25	1354	1529.2	1321.89	40.0048	1087.75	611.659	229.591	1875.55	131.875	318.062	127.588	192.307	303.435	309.060	314.718	303.828	8192	-8191	8192	8192	254	
77579.758	1	1	0	0	888.719	906.908	832.381	3.40367	721.623	355.01	97.4581	1090.15	1365.9	1513.6	1319.12	40.1346	1084.63	590.668	217.769	1872.14	128.184	316.626	129.004	342.058	304.917	306.150	314.321	305.667	8192	-8191	8192	8192	254	
77579.805	1	1	0	0	910.728	962.787	859.405	4.24802	701.889	351.945	113.423	1062.45	1361.91	1545.94	1328.16	44.9087	1076.64	581.438	228.75	1860.58	130.358	320.235	127.284	288.598	303.835	307.130	314.247	304.357	8192	-8191	8192	8192	254	
77579.852	1	1	0	0	909.475	952.532	815.76	3.15251	736.269	370.444	107.151	1045.37	1364.7	1531.69	1301.1	39.1923	1111.28	591.577	220.375	1832.37	129.327	318.261	127.745	279.182	305.718	308.704	308.724	304.501	8192	-8191	8192	8192	254	
77579.898	1	1	0	0	886.554	917.047	864.101	1.20404	729.286	347.347	106.46	1009.1	1348.32	1513.67	1312.87	39.9279	1082.22	582.837	223.913	1851.9	128.662	317.623	125.923	109.050	305.699	305.560	307.629	305.028	8192	-8191	8192	8192	254	
77579.953	1	1	0	0	873.981	937.266	850.631	2.13965	719.53	350.598	118.752	1057.3	1340.63	1532.78	1318.73	42.3317	1065.19	594.745	223.284	1843.15	128.478	318.787	126.206	64.518	304.170	309.481	309.461	305.670	8192	-8191	8192	8192	254	
77580.023	1	1	0	0	911.253	923.453	846.238	4.56117	753.966	354.867	107.651	1064.46	1370	1534.84	1324.1	40	1102.98	594.462	219.548	1867.06	128.606	318.758	128.484	172.009	305.616	310.280	309.928	304.790	8192	-8191	8192	8192	254	
77580.070	1	1	0	0	888.295	941.319	863.374	5.93011	750.878	347.075	108.342	1066.28	1373.43	1535.31	1321.31	40.875	1094.69	590.817	224.481	1850.07	128.513	318.442	128.495	19.961	303.383	310.109	304.369	303.470	8192	-8191	8192	8192	254	
77580.117	1	1	0	0	910.003	923.707	827.687	4.12199	715.348	346.753	119.42	1027.84	1368.64	1525.76	1307.06	38.6683	1083.36	575.072	233.87	1858.17	130.208	319.280	127.983	262.103	302.231	306.809	312.405	304.901	8192	-8191	8192	8192	254	
77580.164	1	1	0	0	906.474	923.564	826.61	3.87827	760.898	367.457	100.809	1048.45	1365.6	1528.45	1303.53	40.0096	1108.9	597	216.375	1848.18	130.801	318.202	127.902	334.437	304.003	309.227	313.147	304.624	8192	-8191	8192	8192	254	
77580.164	1	1	0	0	921.54	938.772	819.047	2.87641	709.9	339.362	90.5991	1037.21	1374.16	1543.4	1312.31	44.1298	1071.45	576.913	210.74	1833.5	128.578	319.042	128.297	249.823	305.871	306.416	303.641	304.554	8192	-8191	8192	8192	254	
77580.211	1	1	0	0	888.048	933.108	831.104	2.21061	740.666	356.474	101.25	1046.16	1355.06	1526	1304.93	41.1202	1093.59	590.63	226.168	1853.61	127.886	318.383	128.379	198.368	305.930	310.463	300.983	304.674	8192	-8191	8192	8192	254	
77580.266	1	1	0	0	894.496	937.83	838.169	4.27441	721.833	381.912	107.26	1047.06	1363.97	1524.1	1320.54	42.226	1078.19	604.053	224.918	1851.15	130.886	316.463	127.047	228.640	304.739	305.720	309.011	304.504	8192	-8191	8192	8192	254	
77580.312	1	1	0	0	886.445	943.571	858.018	5.35398	750.252	347.391	108.037	1041.71	1360.49	1537.47	1320.32	41.7067	1094.01	598.26	228.788	1854.44	127.895	317.235	129.592	313.719	304.039	308.360	318.189	305.860	8192	-8191	8192	8192	254	
77580.383	1	1	0	0	899.736	950.762	796.038	3.59307	734.619	333.955	116.46	1072.51	1350.39	1540.77	1286.92	43.5625	1073.87	570.663	222.519	1874.05	127.980	318.006	127.223	199.877	303.938	307.652	308.374	302.278	8192	-8191	8192	8192	254	
77580.430	1	1	0	0	878.893	935.091	824.232	4.55776	746.007	350.293	112.449	1044.99	1340.99	1548.55	1303.42	42.1106	1087.41	573.163	232.976	1852.12	129.198	318.460	130.918	282.576	305.035	309.207	308.784	304.748	8192	-8191	8192	8192	254	
77580.477	1	1	0	0	910.679	882.351	828.239	3.84981	739.444	375.735	114.396	1095.81	1366.9	1496.65	1294.68	40.8317	1084.9	589.913	227.562	1870.44	128.840	317.817	128.239	310.506	304.132	308.729	310.078	305.583	8192	-8191	8192	8192	254	
77580.523	1	1	0	0	908.739	956.757	831.92	4.59085	751.433	356.34	124.013	1013.89	1376.01	1546.2	1305.21	39.6635	1091.15	590.072	233.812	1824.88	130.342	318.843	128.376	323.596	302.401	305.139	312.755	306.739	8192	-8191	8192	8192	254	
77580.578	1	1	0	0	877.048	940.741	827.736	4.18632	710.492	343.503	106.201	1048.94	1345.93	1537.14	1303.17	42.6827	1075.27	582.082	217.476	1851.43	130.296	317.696	128.441	286.728	304.200	306.529	313.203	303.351	8192	-8191	8192	8192	254	
77580.625	1	1	0	0	896.134	929.951	855.639	5.56955	705.332	353.568	109.456	1051.03	1344.41	1515.03	1314.61	42.7452	1071.09	591.043	224.548	1849.83	127.154	319.173	127.971	303.162	303.448	308.722	310.683	303.773	8192	-8191	8192	8192	254	
77580.695	1	1	0	0	882.933	874.309	858.61	2.90967	708.248	360.634	94.2872	1026.92	1349.63	1497.17	1319.31	37.0817	1068.39	592.495	220.846	1841.15	131.218	320.027	129.475	331.039	304.534	307.811	317.759	303.438	8192	-8191	8192	8192	254	
77580.742	1	1	0	0	884.533	900.658	869.998	10.5721	725.491	365.373	102.08	1025.97	1360.9	1517.82	1335.87	44.726	1078.68	604.909	224.601	1847.2	129.601	319.941	127.117	45.170	303.458	307.984	310.405	304.612	8192	-8191	8192	8192	254	
77580.789	1	1	0	0	898.363	919.13	800.407	6.17552	705.91	350.573	107.32	1046.23	1360.07	1522.6	1295.06	44.7596	1069.74	586.481	221.986	1847.88	129.265	318.497	129.185	283.406	304.561	308.429	316.741	303.594	8192	-8191	8192	8192	254	
77580.836	1	1	0	0	892.037	926.293	826.172	5.56283	718.967	340.718	122.14	1082.14	1343.82	1527.21	1308.63	42.0433	1071.9	590.938	231.587	1883.89	130.033	318.745	128.261	302.036	304.725	307.691	314.107	305.094	8192	-8191	8192	8192	254	
77580.891	1	1	0	0	904.4	934.444	889.427	2.05946	744.791	334.317	110.126	1094.09	1364.34	1522.33	1350.02	45.2596	1087.95	583.543	219.745	1849.25	129.169	319.856	128.765	285.594	302.467	306.196	308.006	302.729	8192	-8191	8192	8192	254	
77580.938	1	1	0	0	908.894	946.785	818.613	8.44408	729.501	361.15	114.231	1031.12	1352.71	1536.21	1292	39.524	1072.25	586.178	215.812	1836.73	130.243	318.559	128.293	317.142	306.057	307.247	312.575	303.488	8192	-8191	8192	8192	254	
77580.938	1	1	0	0	907.525	940.468	845.345	2.08631	728.148	362.573	119.851	1047.63	1368.81	1545.66	1323.88	40.2837	1085.07	585.077	234.144	1847.73	129.920	317.237	128.739	109.570	303.651	309.192	309.988	305.466	8192	-8191	8192	8192	254	
77580.984	1	1	0	0	892.196	940.243	849.902	6.67473	741.755	381.486	116.058	1061.08	1336.45	1526.59	1321.07	44.7885	1087.03	599.476	225.168	1852.37	128.768	319.474	126.213	95.628	305.497	308.279	314.858	305.055	8192	-8191	8192	8192	254	
77581.031	1	1	0	0	925.318	936.192	834.322	5.07805	740.067	355.929	107.5	1075.56	1363.25	1527.13	1298.24	43.3221	1099.11	595.808	232.159	1856.03	130.184	317.957	126.888	211.902	306.245	309.430	310.003	303.592	8192	-8191	8192	8192	254	
77581.078	1	1	0	0	895.829	942.347	809.125	2.35669	752.266	360.349	105.533	1008.56	1342.51	1524.46	1288.26	39.9615	1087.98	588.798	229.24	1847.18	128.626	316.974	127.743	319.827	304.089	302.428	308.777	305.056	8192	-8191	8192	8192	254	
77581.148	1	1	0	0	919.61	928.643	840.436	4.7806	709.155	346.571	110.013	1067.91	1361.11	1524.85	1298.64	37.3462	1072.84	591.077	232.62	1857.55	130.723	316.520	129.127	11.041	305.042	305.974	317.527	304.943	8192	-8191	8192	8192	254	
77581.195	1	1	0	0	899.467	953.001	873.849	3.58	724.727	371.42	88.0648	1066.66	1348.49	1544.69	1322.23	45.3654	1080.39	605.442	209.058	1860.61	129.354	316.683	126.922	32.528	305.447	307.546	309.113	303.531	8192	-8191	8192	8192	254	
77581.250	1	1	0	0	882.874	932.519	874.483	8.3618	736.514	367.462	116.162	1070.57	1359.39	1548.45	1339.14	46.4423	1099.66	600.082	222.312	1873.23	130.754	315.790	127.025	300.863	303.650	308.303	309.642	303.924	8192	-8191	8192	8192	254	
77581.297	1	1	0	0	883.954	931.347	859.931	1.38795	718.069	370.898	105.025	1048.15	1341.62	1524.27	1324.37	40.0865	1070.1	607.341	232.428	1822.67	129.783	318.512	127.920	343.765	302.754	307.783	308.437	304.121	8192	-8191	8192	8192	254	
77581.344	1	1	0	0	882.347	936.337	835.741	2.10731	710.905	352.587	105.837	1080.07	1349.37	1527.58	1322.21	38.1538	1077.87	586.168	216.808	1901.44	130.053	319.761	128.799	335.666	304.330	304.572	313.076	305.346	8192	-8191	8192	8192	254	
77581.391	1	1	0	0	894.76	941.983	844.298	3.8507	753.287	322.642	108.338	1063.72	1345.83	1534.91	1298.36	42.6779	1105.41	576.111	214.091	1864.38	129.953	319.740	129.049	215.563	305.153	306.258	303.589	305.844	8192	-8191	8192	8192	254	
77581.438	1	1	0	0	896.218	949.994	839.257	4.25369	752.984	373.592	116.8	1073.63	1347.04	1540.62	1316.96	43.3702	1108.05	595.293	225.692	1862.79	130.336	318.641	128.056	266.509	303.479	308.085	313.775	303.484	8192	-8191	8192	8192	254	
77581.484	1	1	0	0	918.054	946.74	827.083	0.76572	745.717	374.387	117.663	1066.01	1377.68	1537.94	1302.26	38.1394	1096.14	598.096	231.202	1870.57	128.616	317.250	128.588	44.557	304.519	307.195	309.517	304.506	8192	-8191	8192	8192	254	
77581.562	1	1	0	0	880.824	942.698	856.298	0.953687	706.022	361.237	105.687	1089.56	1347.06	1548.08	1327.2	39.351	1080.58	585.76	220.596	1876.87	130.757	316.770	128.213	349.674	305.268	309.598	309.628	303.951	8192	-8191	8192	8192	254	
77581.609	1	1	0	0	865.512	927.86	871.019	5.44467	717.456	373.283	114.809	1058.24	1338.98	1529.17	1321.91	40.6635	1079.56	587.312	219.37	1851.09	128.723	317.666	128.565	292.406	303.812	305.815	307.527	305.633	8192	-8191	8192	8192	254	
77581.656	1	1	0	0	897.131	928.358	867.515	2.79693	689.733	353.485	95.2785	1053.06	1351.93	1511.09	1329.94	45.3221	1067.9	594.817	218.62	1864.83	130.273	319.684	127.508	251.339	303.013	306.695	311.881	303.729	8192	-8191	8192	8192	254	
77581.703	1	1	0	0	871.712	919.102	803.953	5.33829	721.258	356.627	117.906	1069.17	1327.72	1515.31	1283.4	40.0144	1074.29	593.452	232.226	1885.56	129.025	317.853	128.138	249.242	304.889	306.451	309.678	304.072	8192	-8191	8192	8192	254	
77581.703	1	1	0	0	908.3	905.083	862.419	1.2799	715.701	353.32	109.007	1040.06	1363.2	1518.33	1316.57	42.9567	1082.1	584.087	221.817	1848.73	127.966	317.105	130.448	358.013	305.452	305.809	312.278	302.778	8192	-8191	8192	8192	254	
77581.750	1	1	0	0	884.255	915.6	815.523	2.4957	718.803	347.326	111.355	1065.01	1343.65	1514.44	1282.86	40.8798	1076.22	590.115	224.447	1835.05	130.672	319.604	126.826	119.376	306.630	306.965	310.321	305.818	8192	-8191	8192	8192	254	
77581.797	1	1	0	0	892.874	948.924	867.155	3.56082	750.899	348.779	115.023	1049.52	1349.62	1529.74	1337.16	40.7596	1089.36	593.399	226.255	1852.2	130.436	318.559	126.906	255.105	305.354	306.526	308.678	303.455	8192	-8191	8192	8192	254	
77581.844	1	1	0	0	900.426	928.941	821.896	0.517536	730.65	355.974	97.7672	1079.97	1375.57	1506.68	1290.67	43.2212	1093.24	593.529	217.63	1862.81	129.743	320.238	128.461	100.948	304.651	307.448	307.310	302.492	8192	-8191	8192	8192	254	
77581.922	1	1	0	0	895.141	942.76	833.257	0.31506	695.207	350.236	117.761	1051.04	1361.22	1530.72	1308.84	40.8558	1066.05	592.692	235.928	1835.94	130.539	317.711	127.614	67.516	303.797	307.997	313.502	304.562	8192	-8191	8192	8192	254	
77581.969	1	1	0	0	909.868	915.976	857.225	7.42615	710.823	349.262	105.641	1047.04	1369.93	1509.61	1308.9	40.7788	1076.76	594.043	224.543	1829.49	129.188	320.090	128.330	319.703	304.149	308.455	312.237	304.990	8192	-8191	8192	8192	254	
77582.016	1	1	0	0	954.463	937.186	854.129	2.28017	728.643	365.683	107.093	1098.02	1396.45	1521.42	1309.31	39.6394	1078.8	594.611	222.072	1870.27	130.826	320.520	128.808	80.342	304.878	308.409	312.720	304.080	8192	-8191	8192	8192	254	
77582.062	1	1	0	0	875.666	924.177	822.94	2.4256	717.429	341.641	108.28	1047.9	1341.38	1513.82	1308.26	43.0673	1065.16	580.139	220.639	1853.49	128.965	317.673	127.237	151.055	303.867	311.095	312.768	305.232	8192	-8191	8192	8192	254	
77582.109	1	1	0	0	906.449	908.717	866.496	4.91271	714.297	329.948	111.683	1030.73	1360.39	1503.65	1319.77	45.3125	1069.94	585.803	226.312	1846.16	129.441	318.089	130.010	305.525	304.245	307.983	315.295	306.004	8192	-8191	8192	8192	254	
77582.156	1	1	0	0	912.488	940.414	838.869	2.92731	733.873	350.09	117.154	1045.9	1372.53	1532.22	1309.46	42.4904	1084.67	588.803	228.072	1855.39	127.684	319.676	128.355	349.301	304.388	309.205	311.700	305.678	8192	-8191	8192	8192	254	
77582.234	1	1	0	0	882.803	904.632	878.829	4.46925	722.202	361.069	104.481	1050.6	1348.19	1509.89	1319.88	42.1394	1082.95	590.837	223.995	1852.37	130.907	318.338	127.735	261.652	304.004	309.235	312.288	304.457	8192	-8191	8192	8192	254	
77582.281	1	1	0	0	888.781	881.704	843.152	1.33529	704.132	358.478	118.334	1064.6	1343.13	1500.02	1297.29	43.8125	1059.46	586.399	227.019	1877.93	129.318	318.910	127.073	314.856	306.014	308.069	313.302	304.541	8192	-8191	8192	8192	254	
77582.328	1	1	0	0	881.567	915.554	856.13	4.56313	709.555	364.315	114.101	1031.25	1361.16	1529.76	1316.36	44.5721	1084.51	590.846	224.284	1838	130.840	318.138	129.272	12.248	301.701	310.084	312.891	303.835	8192	-8191	8192	8192	254	
77582.375	1	1	0	0	908.845	936.748	887.47	2.39124	721.027	348.297	113.658	1074.17	1385.88	1535.78	1325.45	39.2548	1075.63	579.423	232.125	1849.93	130.300	318.648	127.148	338.718	306.746	310.691	313.098	303.645	8192	-8191	8192	8192	254	
77582.422	1	1	0	0	904.821	926.523	844.11	1.07385	715.322	347.528	110.562	1037.48	1358.11	1544.52	1319.5	37.2596	1086.45	587.231	220.332	1850.63	129.914	320.195	127.031	207.735	304.850	308.995	307.067	305.514	8192	-8191	8192	8192	254	
77582.469	1	1	0	0	896.564	954.953	803.827	2.84595	709.138	343.464	119.126	1037.61	1354.95	1539.84	1294.96	42.4375	1083.8	592.913	228.149	1846.51	131.792	316.638	128.766	255.821	303.682	308.974	311.808	305.835	8192	-8191	8192	8192	254	
77582.469	1	1	0	0	911.219	924.152	857.828	0.959181	731	353.937	107.512	1065.92	1354.95	1536.08	1344.08	43.0337	1072.27	608.303	225.639	1863.26	129.809	318.728	127.353	312.853	304.450	307.686	306.750	304.310	8192	-8191	8192	8192	254	
77582.516	1	1	0	0	926.428	916.784	823.73	2.55764	717.545	369.931	108.812	1060.63	1369.41	1527.75	1306.72	45.2981	1082.48	599.611	225.005	1849.3	130.938	319.332	127.657	230.042	304.493	307.909	311.271	305.220	8192	-8191	8192	8192	254	
77582.594	1	1	0	0	866.646	905.29	835.174	4.69347	711.883	350.376	105.538	1046.3	1363.29	1529.59	1318.65	42.7212	1084.06	590.625	230.236	1869.59	130.867	317.449	127.851	289.447	303.864	307.631	303.865	304.081	8192	-8191	8192	8192	254	
77582.641	1	1	0	0	871.334	940.515	865.643	4.75352	706.297	348.133	121.653	1063.49	1351.07	1537.92	1338.52	42.0577	1064.01	592.452	233.952	1865.12	131.411	318.986	129.396	87.879	306.002	305.702	313.029	304.833	8192	-8191	8192	8192	254	
77582.688	1	1	0	0	895.925	948.101	819.538	7.11537	731.043	365.755	105.653	1042.52	1366.13	1539.49	1318.98	45.4952	1076.81	603.486	223.62	1853.5	131.633	319.244	128.175	279.905	304.530	308.794	307.547	304.690	8192	-8191	8192	8192	254	
77582.734	1	1	0	0	884.993	935.967	872.02	8.94927	717.15	349.977	119.311	1042.6	1350.6	1527.79	1330.78	45.1058	1073.52	582.668	233.096	1860.09	129.335	317.132	128.447	197.282	304.516	306.486	306.378	303.682	8192	-8191	8192	8192	254	
77582.781	1	1	0	0	925.561	918.198	834.268	3.99628	721.813	363.167	112.629	1048.99	1364.53	1525.69	1310.93	42.9231	1088.02	594.75	238.207	1854.65	130.279	317.686	127.440	345.451	305.856	309.634	308.614	303.700	8192	-8191	8192	8192	254	
77582.828	1	1	0	0	900.111	927.439	842.881	5.30537	719.005	341.73	117.389	1079.35	1374.66	1535.1	1326.85	41.0625	1089.7	587.284	234.966	1873.31	130.227	317.868	128.702	230.426	306.053	310.577	309.909	303.694	8192	-8191	8192	8192	254	
77582.883	1	1	4	0	887.11	914.632	828.65	7.72955	734.781	336.099	108.488	1068.6	1377.53	1517.22	1312.45	49.8125	1084.43	586.635	220.356	1857.62	129.794	318.648	129.535	20.107	305.252	308.650	308.358	303.216	8192	-8191	8192	8192	254	
77582.930	1	1	0	0	918.456	894.988	846.191	4.37752	719.906	366.093	120.127	1093.87	1385.62	1508.13	1323.1	44.851	1083.59	604.389	237.135	1882.87	130.107	319.307	128.219	278.691	303.250	307.672	312.598	304.933	8192	-8191	8192	8192	254	
77582.977	1	1	0	0	923.205	943.157	870.164	5.35985	720.085	336.179	110.605	1066.64	1390.01	1551.35	1329.72	48.375	1067.4	592.231	226.663	1871.88	129.505	319.112	128.532	56.377	304.691	304.484	311.649	303.511	8192	-8191	8192	8192	254	
77583.023	1	1	0	0	910.393	965.939	826.451	1.92734	699.904	354.084	99.7234	1075.02	1383.4	1532.02	1303.16	43.8077	1077.16	589.385	222.769	1868.87	129.953	317.106	127.368	268.676	305.755	309.035	315.406	305.135	8192	-8191	8192	8192	254	
77583.094	1	1	0	0	920.849	912.721	848.042	5.2337	721.696	352.127	121.47	1062.38	1362.6	1523.22	1324.94	46.375	1086.16	581.736	233.639	1864.76	128.558	316.765	130.031	320.820	303.479	305.793	314.348	304.291	8192	-8191	8192	8192	254	
77583.141	1	1	0	0	914.731	918.949	864.302	5.17769	702.513	350.452	109.518	1057.16	1375.53	1514.32	1344.09	45.0721	1085.36	582.63	229.562	1857.09	129.888	317.670	127.952	122.106	305.703	309.521	313.977	306.435	8192	-8191	8192	8192	254	
77583.188	1	1	0	0	901.007	908.687	868.001	4.18773	715.369	353.461	105.104	1047.58	1351.34	1534.85	1339.4	48.6683	1098.58	598.024	233.38	1851.87	128.822	319.415	128.130	242.123	305.861	309.633	311.051	303.833	8192	-8191	8192	8192	254	
77583.242	1	1	0	0	924.065	928.987	833.762	2.20307	725.408	363.983	112.8	1044.34	1366.19	1526.86	1307.17	53.3606	1085.78	613.995	231.245	1862.68	130.967	318.946	128.061	87.029	305.070	307.199	310.668	305.759	8192	-8191	8192	8192	254	
77583.242	1	1	0	0	919.026	924.962	822.983	1.20119	730.086	355.394	111.033	1030.6	1375.75	1554.55	1304.92	60.0144	1107.35	613.88	251.76	1878.64	129.362	317.223	127.869	132.721	304.304	308.672	311.252	303.278	8192	-8191	8192	8192	254	
77583.289	1	1	0	0	912.516	915.492	835.865	3.36701	761.276	343.28	98.8964	1044.82	1405.4	1552.13	1353.64	76.0769	1125.65	619.361	247.149	1900.02	130.250	318.448	127.843	243.271	304.271	307.796	307.702	304.490	8192	-8191	8192	8192	254	
77583.336	1	1	0	0	888.394	915.7	848.119	1.62074	739.79	364.268	110.97	1037.68	1400.03	1553.33	1366.84	82.3269	1134.19	629.611	280.577	1897.01	130.659	316.552	128.073	142.074	304.445	304.488	308.496	303.754	8192	-8191	8192	8192	254	
77583.383	1	1	0	0	924.217	959.48	849.435	5.06658	735.893	347.25	111.056	1024.31	1430.58	1581.42	1354.73	80.2356	1128.82	628.111	254.87	1861.94	130.545	317.154	129.504	296.730	303.293	307.645	308.576	304.407	8192	-8191	8192	8192	254	
77583.453	1	1	0	0	900.094	910.755	859.113	2.94135	716.135	353.113	99.5109	1039.55	1393.05	1553.9	1349.2	66.2115	1098.68	613.072	245.409	1867.35	130.671	318.241	126.422	107.109	304.917	309.015	308.991	303.847	8192	-8191	8192	8192	254	
77583.508	1	1	0	0	878.934	923.789	831.678	4.35734	678.966	330.552	114.301	1017.02	1369.41	1550.4	1317.29	58.75	1074.13	598.269	249.337	1831.2	129.487	318.888	129.418	102.219	305.974	305.283	314.511	305.808	8192	-8191	8192	8192	254	
77583.555	1	1	0	0	908.116	944.154	826.58	3.84044	723.33	361.532	116.467	1063.69	1390.99	1543.67	1332.6	56.6346	1107.18	610.447	248.606	1896.78	129.702	319.425	129.086	16.765	303.698	309.917	307.831	303.506	8192	-8191	8192	8192	254	
77583.602	1	1	0	0	911.339	954.89	783.979	1.88539	714.416	347.935	107.714	1018.05	1385.38	1566.88	1313.05	73.101	1103.57	626.264	251	1880.57	129.320	318.758	128.240	143.786	303.789	305.890	315.418	306.365	8192	-8191	8192	8192	254	
77583.648	1	1	0	0	904.069	914.858	833.454	4.48473	722.259	344.489	112.436	1032.49	1399.74	1558.23	1355.58	89.9712	1127.88	633.889	280.288	1901.15	128.357	317.169	129.133	166.819	304.714	308.516	314.941	303.965	8192	-8191	8192	8192	254	
77583.695	1	1	0	0	893.834	904.22	837.734	3.89791	722.325	338.156	111.608	1059.76	1409.49	1577.76	1384.31	120.01	1178.67	657.062	314.986	1943.03	130.453	317.745	128.815	242.437	306.807	307.173	318.707	303.596	8192	-8191	8192	8192	254	
77583.742	1	1	0	0	865.666	922.856	823.151	9.90617	727.413	329.32	104.404	1059.73	1429.32	1614.64	1400.74	136.332	1179.14	683.88	332.385	1978.24	129.087	317.225	127.667	351.929	304.064	308.596	307.461	304.458	8192	-8191	8192	8192	254	
77583.789	1	1	0	0	893.252	943.619	844.861	4.94098	734.41	333.335	114.133	1070.9	1472.19	1650.11	1435.96	158.673	1201.68	711.899	357.01	1991.21	128.647	319.040	128.658	92.032	304.995	307.605	316.288	305.057	8192	-8191	8192	8192	254	
77583.859	1	1	0	0	918.188	960.436	844.483	4.02849	736.718	381.675	107.434	1037.98	1500.6	1676.53	1449.1	176.12	1236.2	749.769	376.673	1987.41	129.414	316.537	127.711	177.402	305.525	308.558	314.990	305.279	8192	-8191	8192	8192	254	
77583.914	1	1	0	0	898.845	961.717	843.53	11.8759	722.221	361.852	106.524	1084.82	1510.26	1685.06	1465.74	202.284	1231.39	758.976	388.293	2033	128.256	319.953	126.137	345.728	303.664	307.050	313.089	305.111	8192	-8191	8192	8192	254	
77583.961	1	1	0	0	885.972	920.606	836.968	7.45959	727.715	354.968	107.234	1006.53	1517.92	1706.6	1476.61	232.356	1273.26	775.558	407.288	2019.83	130.385	319.840	128.679	320.634	303.340	305.185	310.549	305.382	8192	-8191	8192	8192	254	
77584.008	1	1	0	0	887.522	972.673	846.496	4.72378	718.8	342.7	110.904	1029.92	1546.07	1735.27	1512.43	242.197	1287.18	792.308	433.178	2045.43	130.360	318.144	127.061	225.596	304.500	307.159	317.394	303.291	8192	-8191	8192	8192	254	
77584.008	1	1	0	0	894.073	918.333	815.061	6.29872	739.21	351.693	117.247	1047.15	1570.28	1752.01	1529.59	265.519	1302.77	823.082	476.197	2062.87	130.775	316.479	127.910	22.763	302.744	306.606	309.734	305.387	8192	-8191	8192	8192	254	
77584.055	1	1	0	0	918.47	925.608	845.067	4.26057	732.179	369.441	126.207	1044.41	1608.49	1791.37	1563.05	306.923	1366.12	871.543	520.5	2136.29	129.428	317.047	127.882	302.038	304.081	309.469	312.048	304.094	8192	-8191	8192	8192	254	
77584.102	1	1	0	0	917.949	902.877	832.028	2.9406	745.127	329.417	112.603	1035.31	1637.5	1799.25	1595.48	334.49	1394.88	877.029	526.827	2147.35	128.780	318.378	128.960	126.493	304.884	304.890	304.214	304.887	8192	-8191	8192	8192	254	
77584.148	1	1	0	0	897.143	924.14	829.556	2.1564	754.356	331.241	102.317	1081.47	1667.42	1831.12	1611.79	353.514	1375.43	878.962	533.596	2165.13	130.618	318.534	125.942	25.691	303.106	312.076	308.069	303.845	8192	-8191	8192	8192	254	
77584.195	1	1	0	0	911.309	960.329	815.083	18.2855	719.97	360.156	120.441	1055.16	1688.26	1841.54	1614.13	359.216	1409.8	903.548	558.264	2211.15	129.445	318.908	128.402	342.661	305.749	305.759	307.572	304.192	8192	-8191	8192	8192	254	
77584.250	1	1	0	0	909.974	941.934	870.425	4.15457	708.676	318.34	92.4797	803.155	1731.96	1870.75	1687.19	394.356	1409.92	880.385	521.562	1715.64	128.305	317.630	129.195	158.768	302.057	307.132	310.597	303.327	8192	-8191	8192	8192	254	
77584.320	1	1	0	65536	497.764	288.845	166.191	5.42689	20.7242	11.2516	3.02907	10.6129	1033.05	701.731	415.077	164.5	181.346	149.755	141.962	138.904	130.687	317.601	126.863	254.719	290.371	188.598	243.304	231.697	8192	-8191	8192	8192	254	
77584.367	1	1	0	65536	1.27547	5.3709	13.354	97.0902	234.65	118.475	140.522	105.769	147.37	176.712	474.606	3668.39	11582.5	32341.9	20807.7	23900.2	284.517	55.810	307.816	112.067	122.916	121.478	288.405	95.391	8192	-8191	8192	8192	254	
77584.414	1	1	0	65536	104.792	118.984	133.444	26.3663	81.2934	50.7889	52.4265	45.3332	24422.6	24925.5	25701.1	26325.5	26686.5	27003.5	27381.1	28021.9	251.701	258.225	257.189	302.727	260.206	226.818	274.734	337.188	8192	-8191	8192	8192	254	
77584.461	1	1	0	65536	105.265	88.9612	185.604	44.4593	152.954	217.127	159.313	48.1198	27880.1	27885.4	26982.7	26457.6	27204.2	28262.5	28876.3	30567.7	224.020	281.101	353.935	216.884	80.163	146.442	117.095	126.693	8192	-8191	8192	8192	254	
77584.508	1	1	0	65536	0	0	174.272	59.5768	38.3369	94.979	145.227	52.0052	32767	32767	30118.4	31628.8	26055.8	26035	20463.8	6517.25	180.000	180.000	313.335	349.933	44.289	213.803	276.341	303.379	8192	-8191	8192	8192	254	
77584.562	1	1	0	65536	16.2638	40.7976	180.569	104.081	86.9639	0	0	36.5856	2808.99	2897.75	9422.55	19478.8	30950.2	32767	32767	32617.4	10.732	273.038	108.614	10.108	143.273	180.000	180.000	293.085	8192	-8191	8192	8192	254	
77584.633	1	1	0	65536	64.0425	7.40118	47.3283	68.0699	26.4144	77.0485	69.8224	84.7549	24836.5	30078.5	32087.5	29799.5	29665.6	29515.9	29466.3	30163.7	341.387	168.570	308.020	260.017	346.671	167.656	273.613	45.290	8192	-8191	8192	8192	254	
77584.680	1	1	0	65536	29.7577	8.98873	0	0	0	0	0	0	32115.6	32748.5	32767	32767	32767	32767	32767	32767	55.606	242.229	180.000	180.000	180.000	180.000	180.000	180.000	8192	-8191	8192	8192	254	
77584.727	1	1	0	65536	148.325	151.769	34.5599	27.1859	13.0222	35.352	18.0653	13.5222	29929.2	13355.3	1823.41	1257.73	1317.26	1333.17	1379.38	1412.09	257.427	273.513	294.705	257.866	107.731	300.893	342.086	71.082	8192	-8191	8192	8192	254	
77584.773	1	1	0	65536	42.9823	16.2013	27.522	22.5601	9.45544	33.1692	27.7648	36.855	1456.51	1474.26	1509.55	1515.43	1497.94	1530.88	1571.89	1697.87	343.129	196.578	325.342	307.587	352.632	331.052	298.666	270.260	8192	-8191	8192	8192	254	
77584.773	1	1	0	0	7.26312	28.0142	19.7872	39.6009	14.8299	15.7852	33.0884	35.1921	1713.15	1818.69	1856.7	1984.04	1966.2	2038.68	2033.93	2193.55	146.578	194.162	72.092	39.434	286.595	302.203	45.546	183.445	8192	-8191	8192	8192	254	
77584.820	1	1	0	0	23.9559	29.6442	43.958	49.4674	9.50044	41.3917	44.2723	39.9613	2255.7	6055.48	4512.34	3522.95	2982.42	2962.59	3014.12	3147.65	149.111	55.220	22.495	242.170	298.798	238.494	75.125	234.638	8192	-8191	8192	8192	254	
77584.867	1	1	0	0	17.9466	33.4839	29.8411	56.2929	29.9128	35.5669	20.0348	11.9265	3308.18	3444.02	3461.24	3503.62	3680.58	3873.84	3970.4	3936.75	237.957	35.614	290.336	139.035	228.051	138.185	140.758	184.633	8192	-8191	8192	8192	254	
77584.922	1	1	0	0	54.9205	53.1066	32.7437	12.7614	9.07687	16.1737	9.28381	3.60187	3699.34	3090.99	2185.43	1333.33	862.178	593.995	461.394	421.62	254.654	219.630	255.481	39.336	68.777	301.742	336.764	111.206	8192	-8191	8192	8192	254	
77584.992	1	1	0	0	12.8946	9.83315	15.3408	14.0478	6.59764	6.29501	15.3099	16.2175	414.524	364.697	358.668	328.115	333.274	302.529	281.433	256.293	180.338	230.532	23.470	207.973	193.998	79.682	187.211	295.128	8192	-8191	8192	8192	254	
77585.039	1	1	0	0	5.41876	10.5369	6.16527	4.47661	8.00883	4.31552	4.18977	2.58423	233.327	209.543	203.202	192.135	177.005	183.514	166.957	162.216	17.804	272.635	267.715	177.652	199.777	124.380	214.227	343.562	8192	-8191	8192	8192	254	
77585.086	1	1	0	0	9.43966	3.91189	14.3128	9.46157	12.1232	6.4664	6.66258	10.9429	163.346	147.524	157.938	139.413	143.692	153.808	141.726	155.125	326.101	91.382	330.564	2.532	353.930	101.750	268.672	223.451	8192	-8191	8192	8192	254	
77585.133	1	1	0	0	4.75434	13.9357	14.5814	15.2637	113.065	85.5737	36.6317	311.685	159.457	186.471	236.692	284.438	596.317	646.159	625.26	1091.06	43.073	307.679	117.294	199.469	317.200	312.895	293.554	305.467	8192	-8191	8192	8192	254	
77585.188	1	1	0	0	237.372	221.908	224.226	5.26808	214.451	116.018	39.0081	309.408	928.933	956.212	935.957	587.745	905.769	740.827	655.875	1126.11	135.179	322.227	131.625	109.191	312.210	321.310	313.194	311.703	8192	-8191	8192	8192	254	
77585.234	1	1	0	0	241.851	258.49	211.504	17.6532	221.707	97.2901	27.4627	295.867	944.481	1015.16	940.534	607.37	897.37	754.005	637.255	1130.61	133.083	325.850	132.712	202.936	310.367	311.557	327.039	306.514	8192	-8191	8192	8192	254	
77585.305	1	1	0	0	246.066	261.524	206.687	14.439	198.054	103.351	37.6357	314.599	948.899	969.673	900.202	556.63	853.24	702.529	587.332	1065.73	138.713	329.951	129.846	350.830	311.623	320.547	308.336	303.905	8192	-8191	8192	8192	254	
77585.352	1	1	0	0	275.815	258.298	237.607	20.3231	196.142	113.138	48.7196	319.117	907.346	915.101	883.192	502.038	796.24	656.803	553.865	1052	140.662	323.589	129.424	11.267	311.695	305.820	323.905	309.322	8192	-8191	8192	8192	254	
77585.398	1	1	0	0	249.746	265.115	239.419	4.50096	210.112	112.466	25.4305	331.265	849.207	886.5	826.683	449.976	749.62	622.212	485.885	985.5	140.312	326.628	134.366	242.221	311.487	316.073	349.357	310.184	8192	-8191	8192	8192	254	
77585.445	1	1	0	0	259.164	271.834	256.608	13.3118	207.078	100.199	33.5497	310.765	809.986	838.654	786.577	382.817	688.341	537.726	419.38	884.784	136.807	325.757	130.423	200.213	309.955	327.542	324.667	310.509	8192	-8191	8192	8192	254	
77585.492	1	1	0	0	240.199	294.924	227.423	6.11204	203.023	110.931	32.9312	299.31	682.361	714.168	638.288	289.99	572.817	406.5	297.601	763.774	135.809	317.352	130.833	269.679	315.603	311.516	313.880	308.761	8192	-8191	8192	8192	254	
77585.547	1	1	0	0	234.025	255.671	214.074	2.61026	190.81	97.0385	28.1951	267.818	576.038	605.38	532.851	182.178	451.572	321.274	218.005	627.577	136.438	324.586	130.545	95.889	310.706	304.522	319.150	308.182	8192	-8191	8192	8192	254	
77585.547	1	1	0	0	215.263	225.028	190.317	3.39734	182.764	98.4071	32.1663	283.418	484.139	507.788	449.534	139.716	389.317	259.587	149.231	582.702	134.726	325.215	133.837	120.145	310.316	313.591	333.427	312.393	8192	-8191	8192	8192	254	
77585.594	1	1	0	0	219.484	211.706	206.736	1.30742	192.961	86.8081	36.8971	265.085	417.361	432.529	379.62	70.2933	331.582	200.135	125.014	536.284	136.881	325.697	134.029	41.005	311.486	314.771	298.770	308.107	8192	-8191	8192	8192	254	
77585.641	1	1	0	0	220.052	213.076	215.506	4.2525	164.264	103.615	33.6563	267.768	384.654	403.87	367.841	55.1106	310.986	211.394	105.351	538.904	132.656	324.292	130.127	55.498	307.671	316.064	314.177	313.655	8192	-8191	8192	8192	254	
77585.688	1	1	0	0	215.571	215.569	203.828	1.69939	189.095	88.9424	31.2851	248.232	376.726	408.067	367.841	56.6106	322.731	197.288	103.596	529.784	135.008	323.567	136.252	56.332	311.876	309.537	316.061	310.640	8192	-8191	8192	8192	254	
77585.758	1	1	0	0	213.286	213.476	200.753	3.1418	182.435	87.9397	37.4199	267.637	375.197	412.202	373.26	61.2788	328.452	208.082	111.923	537.462	132.002	324.021	134.874	151.344	310.021	312.144	300.947	307.036	8192	-8191	8192	8192	254	
77585.805	1	1	0	0	211.326	226.281	202.106	5.47978	186.259	86.7052	19.4925	284.035	377.188	415.875	379.144	64.726	331.269	201.803	115.726	544.255	136.727	325.270	137.403	16.940	308.052	313.927	340.902	313.256	8192	-8191	8192	8192	254	
77585.852	1	1	0	0	216.536	232.479	197.791	0.872647	179.791	85.3186	22.8984	264.305	375.293	429.793	377.389	63.9087	318.428	210.851	115.707	528.707	138.235	326.352	129.445	212.183	314.518	315.083	320.658	308.803	8192	-8191	8192	8192	254	
77585.906	1	1	0	0	213.533	213.797	213.826	4.93839	185.574	97.2768	14.8306	268.217	380.856	408.207	376.014	63.3173	319.202	204.688	106.889	519.269	133.498	327.117	130.430	249.972	308.643	310.749	334.884	310.935	8192	-8191	8192	8192	254	
77585.953	1	1	0	0	216.796	205.361	193.759	5.07556	200.877	91.8442	25.4451	287.24	370.192	395.678	344.822	54.9087	318.875	198.106	94.8798	522.067	134.365	324.821	132.813	77.533	307.523	323.420	336.218	311.306	8192	-8191	8192	8192	254	
77586.000	1	1	0	0	227.253	201.315	194.191	4.18877	178.661	99.4733	24.8577	267.558	359.846	390.125	334.861	46.6923	310.918	188.236	99.9663	517.654	132.426	326.000	135.069	129.051	310.667	307.038	315.355	308.784	8192	-8191	8192	8192	254	
77586.070	1	1	0	0	206.201	225.298	204.261	0.767407	172.506	108.254	32.8161	267.215	352.356	398.192	334.101	46.0577	297.149	200.101	91.5433	502.558	137.157	325.726	134.198	194.754	307.231	312.281	322.845	307.560	8192	-8191	8192	8192	254	
77586.117	1	1	0	0	212.372	222.783	190.553	2.64418	189.429	96.9527	37.9815	277.338	364.077	402.293	337.721	43.4663	310.942	182.327	92.8365	517.639	134.892	322.078	133.680	342.211	309.530	310.579	314.131	308.141	8192	-8191	8192	8192	254	
77586.164	1	1	0	0	203.739	211.296	196.784	3.97086	184.403	107.212	23.6567	273.478	342.567	387	336.404	43.1635	306.385	190.875	90.399	516.817	130.904	322.994	132.279	330.002	307.608	314.286	310.436	310.866	8192	-8191	8192	8192	254	
77586.219	1	1	0	0	218.288	211.573	195.099	3.151	174.94	100.68	32.9202	287.515	360.659	382.587	344.562	42.9567	303.938	189.067	97.0625	516.269	138.813	324.918	134.632	191.053	306.766	305.065	314.188	308.135	8192	-8191	8192	8192	254	
77586.266	1	1	0	0	207.54	215.606	202.715	3.80227	168.193	108.582	25.9925	272.614	353.005	396.505	353.087	50.2163	304.269	191.99	89.9038	520.082	135.736	321.303	132.271	100.680	313.919	311.854	317.361	306.301	8192	-8191	8192	8192	254	
77586.312	1	1	0	0	204.924	230.061	193.562	2.55063	173.368	92.334	31.7281	269.986	362.947	399.101	337.769	41.9856	297.832	187.226	87.5048	504.481	133.378	323.900	127.631	206.182	311.906	321.895	302.034	311.966	8192	-8191	8192	8192	254	
77586.312	1	1	0	0	222.146	226.429	191.191	5.44249	193.519	93.9034	30.6635	290.697	369.76	398.707	344.514	45.4808	310.212	179.668	94.7644	523.361	135.209	322.911	133.723	183.794	308.361	315.918	318.278	308.384	8192	-8191	8192	8192	254	
77586.359	1	1	0	0	213.807	226.874	205.816	1.4571	193.157	83.5826	22.8453	267.959	350.587	397.394	344.611	42.875	307.514	181.231	88.8221	513.909	136.054	323.070	130.896	329.297	308.811	314.598	316.432	309.184	8192	-8191	8192	8192	254	
77586.430	1	1	0	0	209.899	206.506	218.006	4.19562	179.268	87.3849	20.3988	282.829	348.803	389.769	361.183	39.0962	309.418	181.269	79.6106	518.486	131.698	326.984	131.002	3.080	307.976	307.431	310.462	308.038	8192	-8191	8192	8192	254	
77586.477	1	1	0	0	202.59	207.655	204.25	3.78897	188.048	95.7005	27.3881	247.498	356.62	386.207	341.538	40.5192	313.077	187.183	86.8365	495.769	137.710	324.879	132.044	196.008	310.548	318.418	324.987	310.159	8192	-8191	8192	8192	254	
77586.523	1	1	0	0	220.634	218.023	206.357	5.00305	175.994	96.8444	29.2041	256.931	355.029	387.726	337.514	40.9615	298.981	194.125	92.5	508.024	132.445	323.241	131.590	74.417	310.282	309.833	335.605	309.035	8192	-8191	8192	8192	254	
77586.578	1	1	0	0	219.977	214.358	198.792	4.28356	193.718	86.0899	23.9291	259.54	360.457	394.274	351.399	42.6635	309.144	178.87	84.0673	509.899	136.744	326.194	134.493	67.097	314.445	307.533	315.587	312.110	8192	-8191	8192	8192	254	
77586.625	1	1	0	0	216.495	210.67	196.241	7.21028	180.912	96.8011	29.3966	265.318	359.938	392.202	336.981	42.7163	299.904	186.736	93.0192	519	137.061	320.382	135.204	316.046	312.760	308.495	316.715	310.804	8192	-8191	8192	8192	254	
77586.672	1	1	0	0	209.593	215.999	202.893	9.89511	202.16	81.6161	31.387	265.721	346.284	384.673	335.226	41.3798	312.101	178.808	86.8125	521.188	131.940	319.347	131.370	187.331	307.642	314.965	333.208	311.649	8192	-8191	8192	8192	254	
77586.719	1	1	0	0	228.073	209.881	216.947	6.23964	174.844	86.6683	24.9291	273.247	356.591	386.649	348.192	43.9279	298.312	174.01	90.6875	522.721	138.562	325.184	132.272	28.914	309.526	317.301	339.770	309.396	8192	-8191	8192	8192	254	
77586.766	1	1	0	0	222.652	212.911	197.553	4.98016	181.77	86.9053	22.3429	275.805	358.01	382.572	334.913	40.9808	298.072	185.447	84.4615	511.721	133.731	324.356	135.793	293.930	311.312	317.524	320.521	311.195	8192	-8191	8192	8192	254	
77586.836	1	1	0	0	212.287	205.243	191.408	5.75178	174.352	90.6019	32.1008	263.495	358.62	383.452	335.178	42.3798	290.13	189.466	89.4038	511.356	136.126	324.594	136.598	296.351	309.518	316.784	315.569	305.887	8192	-8191	8192	8192	254	
77586.891	1	1	0	0	202.073	209.313	188.542	3.05782	183.566	91.8508	32.6535	271.554	351.216	389.183	335.062	40.5913	299.721	180.697	95.7788	503.245	135.907	324.131	129.319	260.934	310.119	319.711	327.581	307.525	8192	-8191	8192	8192	254	
77586.938	1	1	5	0	206.521	200.491	202.453	3.70446	189.532	94.8048	29.1622	275.482	350.163	375.548	350.894	40.0529	305.438	183.74	90.1346	521.793	137.907	320.088	133.840	324.208	310.653	316.292	314.540	312.689	8192	-8191	8192	8192	254	
77586.984	1	1	0	0	221.849	203.592	196.71	6.06802	180.553	86.7097	30.508	266.206	357.572	380.01	338.399	42.476	297.774	176.288	88.4471	499.995	138.492	325.277	135.615	103.633	308.660	319.975	319.110	309.610	8192	-8191	8192	8192	254	
77587.031	1	1	0	0	215.895	210.541	202.451	2.9818	180.186	98.9321	35.8952	264.829	358.279	379.971	339.087	39.7115	301.312	181.817	88.3365	505.12	139.878	325.650	134.402	308.074	306.020	312.723	317.330	311.380	8192	-8191	8192	8192	254	
77587.078	1	1	0	0	215.851	234.012	193.793	4.62232	178	97.6555	31.1334	291.111	362.75	396.077	339.529	41.4712	306.827	185.51	90.7452	517.688	134.508	320.896	132.965	9.247	310.687	314.265	322.236	307.697	8192	-8191	8192	8192	254	
77587.078	1	1	0	0	222.455	211.006	201.345	1.83109	180.116	89.5903	27.9262	260.168	361.183	383.337	336.947	43.5913	302.846	180.062	83.125	510.471	133.456	328.447	130.312	293.325	310.939	311.559	310.702	310.941	8192	-8191	8192	8192	254	
77587.125	1	1	0	0	212.611	212.883	195.552	4.231	181.524	94.9083	28.3532	254.646	358.707	399.409	333.889	39.7019	300.668	181.519	84.0865	508.394	134.639	320.574	133.981	356.810	309.468	312.434	322.691	307.640	8192	-8191	8192	8192	254	
77587.180	1	1	0	0	219.244	207.314	208.044	3.78002	165.42	84.4557	29.8266	283.323	359.293	379.183	343.505	35.7596	292.712	180.553	89.0673	508.168	132.192	327.763	135.061	157.145	307.149	313.663	323.511	311.303	8192	-8191	8192	8192	254	
77587.227	1	1	0	0	206.415	209.848	198.488	3.45201	183.531	93.3202	27.8133	265.51	351.077	378.245	337.423	40.8894	303.851	179.298	89.6779	509.173	135.509	324.922	131.281	105.620	309.027	312.787	308.312	315.023	8192	-8191	8192	8192	254	
77587.297	1	1	0	0	196.171	219.859	192.707	6.48674	179.855	83.1839	31.559	250.792	345.288	385.889	339.851	39.399	296.591	176.88	85.4375	499.361	137.184	326.318	132.231	0.053	312.231	306.295	320.924	310.744	8192	-8191	8192	8192	254	
77587.344	1	1	0	0	232.464	223.228	206.791	1.4097	172.877	80.3555	33.2171	274.531	366.279	393.562	347.375	39.3606	297.346	176.957	90.4471	513.755	131.743	324.140	128.926	81.428	309.628	316.863	307.005	308.739	8192	-8191	8192	8192	254	
77587.391	1	1	0	0	212.99	223.609	195.051	5.61228	170.965	100.251	40.716	271.757	362.351	396.423	338.192	35.3173	307.976	178.567	92.8558	504.755	136.452	323.378	131.077	160.326	309.329	309.702	318.225	309.755	8192	-8191	8192	8192	254	
77587.438	1	1	0	0	210.307	218.688	206.612	2.72352	190.096	101.53	29.9546	272.403	352.183	395.409	355.351	39.8798	303.591	190.534	91.8413	510.01	137.031	322.386	136.347	182.120	307.753	317.375	309.578	307.341	8192	-8191	8192	8192	254	
77587.484	1	1	0	0	203.109	205.331	185.028	6.61292	172.779	101.161	32.4796	269.615	351.207	388.966	334.413	41.7452	297.476	194.25	88.4567	502.312	135.635	322.076	135.250	238.613	302.618	317.650	316.834	311.884	8192	-8191	8192	8192	254	
77587.531	1	1	0	0	209.934	228.074	194.599	3.01755	174.956	85.3104	27.2794	299.538	356.981	385.788	340.817	36.5288	291.442	177.26	87.0288	529.226	134.750	324.434	134.474	78.332	305.750	313.141	312.290	309.347	8192	-8191	8192	8192	254	
77587.586	1	1	0	0	210.844	211.091	209.166	2.57369	188.983	98.8569	33.496	282.001	351.731	382.995	342.317	42.7163	301.457	181.24	91.0913	527.865	134.942	320.142	134.609	57.243	309.694	309.840	308.939	311.430	8192	-8191	8192	8192	254	
77587.633	1	1	0	0	225.781	221.391	195.431	9.22317	183.442	89.5608	26.9415	247.223	360.01	385.293	332.519	43.4712	302.745	183.909	83.274	493.149	138.456	327.890	132.664	35.282	311.450	315.175	312.180	308.944	8192	-8191	8192	8192	254	
77587.703	1	1	0	0	213.471	195.806	187.999	3.22165	189.893	100.921	25.2749	273.185	346.49	379.529	338.5	40.7404	307.385	182.659	88.726	509.889	133.551	325.383	134.005	271.422	309.693	316.495	312.807	309.986	8192	-8191	8192	8192	254	
77587.750	1	1	0	0	211.85	204.47	202.437	2.81256	176.793	98.0237	36.1247	262.108	354.639	391.062	336.962	41.6875	293.788	187.495	93.6731	505.5	138.314	319.955	134.215	309.295	311.459	312.462	313.011	309.577	8192	-8191	8192	8192	254	
77587.797	1	1	0	0	213.218	218.721	185.708	3.3121	186.796	98.7494	32.4147	277.368	359.519	389.875	339.673	46.375	296.404	191.183	90.9327	511.659	137.739	323.355	134.469	47.073	308.914	317.060	309.808	310.592	8192	-8191	8192	8192	254	
77587.844	1	1	0	0	210.696	230.28	191.1	4.94902	179.617	80.365	27.3597	265.219	356.49	398.385	338.062	43.8269	302.486	183.851	85.5865	499.274	132.401	320.445	131.914	338.941	307.775	313.124	308.918	309.645	8192	-8191	8192	8192	254	
77587.844	1	1	0	0	216.245	232.883	202.199	6.85421	173.679	89.5268	31.1646	285.064	348.543	399.514	336.582	37.4471	300.048	181.654	93.3317	521.745	133.275	323.911	133.517	306.316	311.260	315.950	305.246	307.937	8192	-8191	8192	8192	254	
77587.898	1	1	0	0	217.974	214.135	198.896	5.8597	182.559	90.3036	26.8019	271.604	352.466	383.466	350.62	39.3798	302.587	190.538	86.9952	523.707	133.708	327.704	128.284	1.266	312.317	314.862	307.998	308.327	8192	-8191	8192	8192	254	
77587.945	1	1	0	0	219.838	210.267	200.352	5.31358	186.573	83.0649	31.5897	261.923	362.837	386.625	351.63	45.1202	306.577	182.654	88.6154	509.418	135.571	322.047	131.941	304.426	308.212	310.561	318.633	308.981	8192	-8191	8192	8192	254	
77587.992	1	1	0	0	207.668	209.814	190.746	1.38011	187.853	88.0089	29.6634	266.751	354.827	400.577	336.173	40.7692	309.308	181.159	90.5769	507.577	135.969	326.605	133.768	312.162	310.890	311.965	299.994	310.437	8192	-8191	8192	8192	254	
77588.062	1	1	0	0	226.447	227.85	203.454	0.751304	169.98	91.3796	29.7706	270.65	356.885	389.423	344.909	43.1635	302.769	179.659	92.3702	507.341	136.898	324.823	134.505	317.418	312.578	316.348	312.906	309.252	8192	-8191	8192	8192	254	
77588.109	1	1	0	0	200.881	200.932	189.147	2.66597	175.087	79.8523	23.2011	258.825	349.183	381.418	335.688	41.3942	295.793	175.385	90.7548	499.476	133.310	329.331	134.755	280.138	310.563	308.106	313.844	310.996	8192	-8191	8192	8192	254	
77588.156	1	1	0	0	206.829	220.548	199.009	4.28241	181.982	90.2356	27.2252	275.633	347.861	392.106	334.019	42.2115	302.683	187.298	91.3894	515.322	136.900	322.150	130.863	119.670	309.325	318.119	313.925	311.106	8192	-8191	8192	8192	254	
77588.203	1	1	0	0	208.572	216.465	208.532	0.229638	155.275	94.1788	22.5673	281.502	347.101	390.856	351.375	40.6298	289.51	182.048	89.8221	518.438	139.476	323.428	131.725	232.917	312.551	317.422	312.443	309.051	8192	-8191	8192	8192	254	
77588.258	1	1	0	0	223.138	210.927	199.553	4.76245	183.017	86.0255	23.617	286.503	355.913	376.438	349.178	44.3558	296.375	179.764	89.6154	519.163	135.275	325.378	131.296	277.127	307.684	313.894	331.437	309.583	8192	-8191	8192	8192	254	
77588.305	1	1	0	0	206.768	211.236	200.773	1.56254	192.286	90.2259	30.4208	280.143	359.5	387.014	340.048	40.7788	305.332	187.75	91.2548	516.361	134.470	325.722	134.058	342.604	311.760	317.290	306.276	310.128	8192	-8191	8192	8192	254	
77588.375	1	1	0	0	210.114	211.325	190.89	4.51495	187.566	83.235	30.4242	281.975	356.721	375.981	332.091	41.6058	305.529	187.264	85.3029	510.212	136.883	322.190	130.862	329.109	309.916	316.361	325.112	311.055	8192	-8191	8192	8192	254	
77588.422	1	1	0	0	216.262	201.865	199.3	4.12232	190.531	91.049	38.5491	276.842	346.476	384.356	338.014	37.7837	300.875	183.707	96.2308	514.37	138.243	320.997	129.800	265.484	310.098	318.748	312.826	309.820	8192	-8191	8192	8192	254	
77588.469	1	1	0	0	217.357	210.382	196.977	3.6369	184.296	96.8463	32.7944	261.629	361.298	382.288	343.106	42.0769	305.558	189.308	95.6635	509.822	133.378	327.827	133.821	31.306	312.039	307.814	315.479	306.851	8192	-8191	8192	8192	254	
77588.516	1	1	0	0	197.657	227.447	188.427	1.76364	172.345	88.3524	24.2504	270.789	353.231	389.106	324.981	43.2212	306.611	181.37	85.3798	530.668	133.126	325.182	134.451	137.709	307.742	312.641	322.405	310.396	8192	-8191	8192	8192	254	
77588.570	1	1	0	0	226	209.054	196.136	2.27303	183.137	104.605	24.5972	275.14	361.534	383.832	339.192	38.3221	308.913	183.591	86.6394	506.606	135.194	324.065	136.499	127.359	310.686	314.176	308.398	310.779	8192	-8191	8192	8192	254	
77588.617	1	1	0	0	214.493	212.221	196.096	4.99392	181.017	94.3729	30.2202	268.29	361.375	372.197	339.846	43.7308	307.442	186.409	88.524	506.452	136.097	320.548	133.606	227.340	309.794	309.963	317.490	309.404	8192	-8191	8192	8192	254	
77588.617	1	1	0	0	217.061	218.634	193.622	0.782893	176.588	93.5831	28.66	268.947	355.159	392.938	338.212	41.5673	291.096	187.788	87.2596	509.918	136.905	324.479	135.722	19.195	311.337	317.068	303.841	305.693	8192	-8191	8192	8192	254	
77588.664	1	1	0	0	212.015	211.548	196.31	4.49524	179.659	90.2629	34.5095	251.561	357.87	386.178	337.808	43.6827	297.058	184.976	87.7933	503.062	134.640	323.099	138.385	37.702	313.431	315.584	307.892	313.096	8192	-8191	8192	8192	254	
77588.734	1	1	0	0	210.302	233.187	199.089	4.02337	173.588	85.2436	30.1268	282.582	353.822	406.438	345.697	41.8365	296.144	180.76	87.2596	520.264	134.962	323.300	129.142	232.153	312.705	313.735	298.551	307.628	8192	-8191	8192	8192	254	
77588.781	1	1	0	0	204.41	220.899	202.255	4.33278	188.649	92.0602	36.8756	268.688	346.995	389.952	343.505	40.5096	305.231	185.942	92.5096	505.188	130.751	325.782	133.590	347.105	311.310	312.734	319.377	308.653	8192	-8191	8192	8192	254	
77588.828	1	1	0	0	199.289	215.608	201.025	1.32529	164.957	89.7337	20.4396	295.676	343.62	382.418	343.067	40.5721	296.034	175.183	87.7452	521.721	136.167	324.039	134.501	227.031	307.758	322.934	308.898	309.491	8192	-8191	8192	8192	254	
77588.883	1	1	0	0	225.06	200.255	199.922	5.2553	177.73	84.0325	31.294	273.029	361.236	386.043	338.236	41.0481	300.058	172.957	91.8077	504.817	133.520	327.610	134.182	149.630	312.434	308.823	310.862	311.417	8192	-8191	8192	8192	254	
77588.930	1	1	0	0	229.829	218.667	186.031	6.08443	192.335	87.2778	31.7166	266.33	361.966	392.514	338.514	38.0769	307.587	179.486	91.0385	506.803	139.299	325.329	133.287	219.268	314.113	313.784	307.518	311.345	8192	-8191	8192	8192	254	
77588.977	1	1	0	0	216.694	221.771	198.561	4.25805	185.885	84.4898	28.2091	282.367	351.269	383.029	338.264	38.524	302.385	179.51	84.7644	516.404	135.272	326.021	136.408	54.893	308.221	313.749	312.324	306.202	8192	-8191	8192	8192	254	
77589.023	1	1	0	0	208.442	216.261	211.734	1.32997	177.534	90.8662	23.5396	286.5	340.601	388.894	350.178	41.6298	308.76	180.404	88.25	515.389	134.780	322.639	134.613	221.581	310.339	312.982	314.457	310.882	8192	-8191	8192	8192	254	
77589.070	1	1	0	0	216.213	224.652	207.677	4.6406	190.49	91.8299	32.8271	256.923	355.745	390.438	348.635	45.0577	305.466	176.202	89.9808	507.788	131.789	325.665	132.934	221.653	309.825	312.939	318.066	312.161	8192	-8191	8192	8192	254	
77589.141	1	1	0	0	225.212	210.194	198.988	5.89797	180.674	78.3454	24.0794	280.159	360.125	380.37	349.673	45.2933	294.721	174.202	92.1827	517.947	135.520	323.746	133.033	98.795	308.999	316.579	323.348	311.784	8192	-8191	8192	8192	254	
77589.188	1	1	0	0	200.286	224.675	192.888	0.809586	178.634	92.1708	32.1463	250.752	341.163	386.279	332.793	42.7933	305.462	185.582	86.3365	493.495	140.893	325.464	134.628	326.068	306.995	314.711	313.795	312.086	8192	-8191	8192	8192	254	
77589.242	1	1	0	0	233.883	208.088	202.103	1.09388	188.759	88.4547	27.0822	281.977	359.452	386.861	351.596	36.0288	301.188	184.577	90.5048	512.327	132.745	324.108	133.350	203.360	310.649	311.782	316.464	306.100	8192	-8191	8192	8192	254	
77589.289	1	1	0	0	216.773	215.287	198.327	3.65997	184.588	86.933	33.1389	272.84	349.812	390.692	344.764	39.7308	298.837	180.389	93.8269	508.562	138.092	323.676	135.810	187.955	307.375	320.527	321.929	308.104	8192	-8191	8192	8192	254	
77589.336	1	1	0	0	201.378	219.015	185.111	1.94442	183.145	91.5094	24.1176	279.396	351.298	391.981	327.197	39.7788	297.019	182.678	86.0962	515.144	134.372	325.918	138.356	295.374	312.512	312.041	315.895	308.915	8192	-8191	8192	8192	254	
77589.383	1	1	0	0	200.133	225.818	208.018	1.69437	171.334	99.0245	28.7793	284.436	348.769	391.832	345.841	40.2308	303.986	187.375	85.7163	513.125	132.625	322.439	137.633	35.633	310.193	312.641	323.834	312.307	8192	-8191	8192	8192	254	
77589.383	1	1	0	0	214.784	236.566	198.566	2.43825	175.815	87.0205	36.3218	277.259	354.702	396.827	343.861	42.3317	298.702	179.894	87.5192	513.702	130.955	325.680	135.016	26.627	306.285	314.840	315.931	311.993	8192	-8191	8192	8192	254	
77589.430	1	1	0	0	216.558	211.805	205.094	1.44985	169.764	101.341	20.5091	289.54	358.649	393.26	349.534	39.5962	291.053	174.077	84.9567	511.106	134.915	325.609	133.948	218.360	306.491	319.435	299.061	309.035	8192	-8191	8192	8192	254	
77589.477	1	1	0	0	236.157	208.25	200.428	6.69265	177.086	88.8544	25.6275	262.373	368.428	385.481	347.269	38.4279	296.13	185.75	88.6923	514.269	133.846	324.559	134.600	46.970	307.839	312.231	332.784	307.735	8192	-8191	8192	8192	254	
77589.523	1	1	0	0	228.517	212.257	188.87	2.46975	178.213	103.039	27.1785	260.656	349.183	381.976	328.082	37.1731	290.462	192.981	85.3702	494.01	133.107	325.966	134.874	237.843	314.022	309.953	313.246	314.384	8192	-8191	8192	8192	254	
77589.602	1	1	0	0	218.93	209.219	185.453	2.14792	170.028	88.0159	28.2903	277.287	352.861	378.029	337.774	41.0769	289.904	180.486	85.9519	505.731	135.008	322.397	132.379	141.065	310.562	312.902	318.055	309.394	8192	-8191	8192	8192	254	
77589.648	1	1	0	0	218.59	203.447	203.017	3.74276	195.259	96.3037	31.5614	280.915	351.678	374.486	336.462	43.1683	302.115	188.678	93.7212	503.793	134.017	326.184	134.881	18.734	310.477	320.310	303.442	310.158	8192	-8191	8192	8192	254	
77589.695	1	1	0	0	223.846	210.311	186.973	2.69789	179.772	88.8389	31.3135	282.91	360.082	391.327	342.644	44.2115	296.591	181.99	89.1635	510.851	137.086	322.417	130.440	127.571	305.038	313.274	311.783	308.645	8192	-8191	8192	8192	254	
77589.742	1	1	0	0	204.106	213.715	186.727	6.43601	195.944	83.5923	32.9156	260.208	356.726	386.442	337.505	43.2788	314.673	179.188	85.976	504.433	129.320	326.026	131.808	262.152	310.919	312.842	324.437	307.368	8192	-8191	8192	8192	254	
77589.789	1	1	0	0	212.588	201.982	190.679	3.45991	169.618	89.2807	31.33	273.962	351.995	383.649	338.952	44.9135	299.163	185.024	90.0769	510.692	138.816	321.209	132.866	155.908	309.219	316.448	319.916	311.235	8192	-8191	8192	8192	254	
77589.836	1	1	0	0	220.784	212.118	188.915	2.31418	179.008	85.4529	33.4652	276.93	361.144	390.26	339.688	46.6346	307.668	184.404	93.6875	512.178	134.697	324.256	130.167	176.413	313.470	317.371	317.498	311.293	8192	-8191	8192	8192	254	
77589.891	1	1	0	0	211.427	224.06	190.574	4.802	183.843	88.0756	28.7978	276.648	359.885	397.572	340.702	48.1394	307.24	180.034	94.1346	514.731	135.403	322.132	134.692	240.141	311.811	313.826	314.888	309.659	8192	-8191	8192	8192	254	
77589.938	1	1	0	0	222.679	219.989	197.436	2.47305	159.532	111.4	32.4536	262.738	358.452	390.659	337.346	43.774	293.534	200.231	90.9471	510.139	138.541	321.864	136.036	313.761	311.347	316.350	313.467	311.580	8192	-8191	8192	8192	254	
77590.008	1	1	0	0	196.282	214.172	190.693	2.72396	196.222	102.436	39.7028	267.987	344.111	390.062	333.995	40.0048	307.375	186.947	91.3702	519.779	135.827	320.421	132.864	314.451	307.591	313.513	325.939	307.853	8192	-8191	8192	8192	254	
77590.055	1	1	0	0	217.948	216.789	191.474	3.69361	180.97	90.0175	24.4342	261.163	355.298	388.279	334.769	43.0865	299.385	184.106	93.9712	508.269	134.966	319.603	134.967	327.403	305.598	313.785	333.638	309.941	8192	-8191	8192	8192	254	
77590.102	1	1	6	0	209.699	214.516	203.907	3.63277	162.962	95.4557	30.0566	252.404	355.933	373.731	345.942	38.4952	290.01	185.861	95.9183	500.885	134.594	322.271	135.213	233.992	312.878	304.099	311.336	307.485	8192	-8191	8192	8192	254	
77590.148	1	1	0	0	204.059	216.137	200.01	6.09511	160.262	79.1789	24.6703	269.997	349.702	388.365	349.62	45.2019	290.899	177.202	89.9231	501.399	131.484	323.538	133.249	281.504	309.832	313.614	318.858	310.384	8192	-8191	8192	8192	254	
77590.148	1	1	0	0	211.338	200.428	213.268	5.78219	172.734	90.2142	27.0416	262.953	352.957	380.058	358.312	41.9375	294.269	180.529	95.8654	510.793	134.953	321.085	132.493	121.252	312.961	320.041	317.425	313.720	8192	-8191	8192	8192	254	
77590.195	1	1	0	0	208.057	217.66	184.848	3.44156	191.91	92.3185	28.6612	268.916	361.096	395.062	337.822	42.3462	311.005	175.659	89.5096	510.779	137.217	326.541	130.670	29.712	310.127	319.266	311.336	307.443	8192	-8191	8192	8192	254	
77590.250	1	1	0	0	212.642	198.643	211.543	6.03017	178.724	96.1708	21.7363	252.948	366.885	377.74	352.923	44.6971	302.091	183.659	87.9904	500.202	132.469	325.058	133.777	290.283	310.226	318.006	324.806	310.611	8192	-8191	8192	8192	254	
77590.297	1	1	0	0	208.771	226.322	196.853	2.85402	178.038	97.6731	27.7668	272.492	352.442	395.486	331.293	41.5769	300.683	183.596	87.4952	518.317	135.623	322.385	133.362	292.215	313.674	315.501	326.871	310.279	8192	-8191	8192	8192	254	
77590.367	1	1	0	0	220.071	210.369	184.902	4.25305	197.484	103.482	33.0667	264.107	351.736	387.207	333.423	41.4663	302.913	188.534	92.7596	512.87	132.961	322.471	133.794	231.190	307.813	311.524	334.918	309.057	8192	-8191	8192	8192	254	
77590.414	1	1	0	0	214.512	212.112	194.731	6.25275	175.052	86.3119	31.0716	279.337	361.245	377.337	344.048	47.8317	295.188	179.024	92.3269	513.837	133.446	320.094	132.691	287.980	308.711	309.350	305.829	311.674	8192	-8191	8192	8192	254	
77590.461	1	1	0	0	199.717	216.83	196.187	4.40979	178.942	96.0278	28.2958	268.194	344.553	388.899	340.558	45.5144	305.111	191.404	91.0096	516.553	134.072	323.895	133.751	99.703	307.371	314.086	324.276	311.604	8192	-8191	8192	8192	254	
77590.516	1	1	0	0	209.319	237.232	196.83	11.3848	180.768	101.829	29.9593	277.802	362.303	403.678	345.413	48.7452	309.438	187.976	100.769	526.053	135.381	322.200	134.234	196.243	309.664	315.843	321.314	310.555	8192	-8191	8192	8192	254	
77590.562	1	1	0	0	209.534	225.714	186.57	3.18574	183.128	86.7994	34.6769	261.446	364.909	403.115	346.601	54.5721	311.909	186.558	98.6346	525.524	132.939	321.997	134.094	242.877	314.609	317.363	306.110	317.325	8192	-8191	8192	8192	254	
77590.609	1	1	0	0	213.44	214.018	214.082	0.676032	190.449	87.8209	30.8568	271.059	367.024	392.981	366.091	56.5	318.808	192.149	106.726	528.76	134.200	324.063	132.203	353.344	307.451	314.296	308.300	312.698	8192	-8191	8192	8192	254	
77590.680	1	1	0	0	208.326	212.892	193.727	7.39377	185.205	95.1624	25.8885	266.354	370.495	402.154	358.067	52.0337	327.894	197.779	105.014	532.303	139.244	323.427	131.008	266.920	311.437	308.162	305.896	311.698	8192	-8191	8192	8192	254	
77590.727	1	1	0	0	206.747	221.577	206.745	1.69899	184.685	98.5021	26.3221	274.634	368.077	398.875	350.812	54.2067	316.596	198.163	103.942	534.058	133.886	321.440	133.831	275.475	310.621	308.801	317.981	312.461	8192	-8191	8192	8192	254	
77590.773	1	1	0	0	202.898	204.548	206.307	2.91915	156.198	82.4891	26.7255	258.641	362.534	394.207	358.582	51.3125	308.005	188.567	100.611	526.644	134.406	319.139	133.593	252.578	305.532	304.677	313.937	310.765	8192	-8191	8192	8192	254	
77590.820	1	1	0	0	227.398	224.263	195.282	6.98531	180.139	96.0804	30.1443	278.693	375.168	400.913	356.577	53.0673	307.293	199.995	102.024	515.928	134.450	321.175	138.917	72.536	315.732	316.421	313.473	311.736	8192	-8191	8192	8192	254	
77590.867	1	1	0	0	212.714	196.984	205.368	7.42383	187.52	89.5719	22.3795	258.477	356.918	398.918	368.793	62.5096	320.894	211.413	109.284	532.668	136.397	323.851	134.367	204.150	308.780	307.427	331.210	311.822	8192	-8191	8192	8192	254	
77590.922	1	1	0	0	224.501	213.95	198.488	23.4492	189.272	96.8446	28.1254	250.792	390.865	424.308	390.13	93.4952	363.721	257.764	174.673	601.837	136.221	329.085	134.731	63.728	311.489	313.183	311.030	306.774	8192	-8191	8192	8192	254	
77590.922	1	1	0	0	246.792	214.911	206.262	11.3984	173.018	84.8412	31.4507	296.782	467.457	489.99	451.712	162.933	431.019	317.519	228.361	681.221	138.923	322.052	133.312	206.168	311.470	322.977	325.202	311.059	8192	-8191	8192	8192	254	
77590.969	1	1	0	0	204.903	214.651	198.715	8.35135	185.419	88.3064	34.8107	271.072	517.562	566.49	531.111	241.894	505.409	405.308	327.462	734.913	135.095	322.700	136.123	195.725	307.168	308.161	301.154	308.964	8192	-8191	8192	8192	254	
77591.016	1	1	0	0	211.706	226.789	165.127	14.5726	169.253	96.2406	16.5742	275.393	594.707	648.981	602.986	330.678	610.654	496.168	428.072	847.163	135.377	328.813	134.266	229.408	312.249	314.908	327.611	316.371	8192	-8191	8192	8192	254	
77591.062	1	1	0	0	230.62	207.332	188.33	3.10627	165.645	86.8566	10.8889	283.987	718.913	761.01	702.207	413.255	679.87	554.37	468.183	899.986	134.778	329.741	131.018	92.660	307.778	317.058	354.811	303.473	8192	-8191	8192	8192	254	
77591.133	1	1	0	0	209.618	234.271	233.667	15.2926	176.204	68.3669	22.7334	254.854	750.058	778.418	738.966	446.404	713.293	604.913	516.471	935.115	134.555	320.976	125.262	234.115	309.849	319.739	292.568	308.218	8192	-8191	8192	8192	254	
77591.180	1	1	0	0	207.311	225.64	198.199	8.65803	188.874	97.3807	26.6376	273.279	783.764	840.394	784.279	481.764	745.337	634.76	534.404	959.038	142.822	325.084	133.373	177.070	306.909	312.515	301.540	311.108	8192	-8191	8192	8192	254	
77591.234	1	1	0	0	219.69	210.948	196.184	10.6118	184.502	81.4799	21.6642	261.095	802.577	834.798	804	498.827	749.587	629.135	558.562	965.596	136.294	325.349	129.526	63.313	308.578	312.789	322.442	309.756	8192	-8191	8192	8192	254	
77591.281	1	1	0	0	194.934	207.341	201.815	13.7493	186.009	82.376	43.4665	269.993	826.707	851.284	822.399	508.183	783.851	664.293	565.418	1012.2	134.373	324.444	130.541	337.949	311.630	310.101	314.849	309.077	8192	-8191	8192	8192	254	
77591.328	1	1	0	0	224.701	221.884	215.264	10.2775	199.946	73.302	28.0874	289.123	859.288	877.808	820.519	511.769	775.043	654.567	559.231	972.538	137.019	319.987	131.919	63.695	308.879	307.301	312.315	310.405	8192	-8191	8192	8192	254	
77591.375	1	1	0	0	223.363	223.826	231.563	10.1521	183.853	99.5445	21.028	274.657	822.178	861.644	817.856	518.865	786.106	651.062	538.428	931.702	134.837	325.424	132.848	93.372	304.593	312.478	345.907	310.873	8192	-8191	8192	8192	254	
77591.422	1	1	0	0	185.008	193.151	143.104	17.2276	103.007	36.4397	9.28933	45.8193	759.957	754.346	659.976	358.601	453.216	303.784	220.096	261.438	132.224	321.999	134.248	270.067	314.251	311.476	309.475	314.105	8192	-8191	8192	8192	254	
77591.469	1	1	0	0	22.7185	17.5852	6.35996	6.28985	6.69418	8.66989	11.5911	6.67632	184.702	154.149	150.817	134.139	134.971	128.976	128.957	139.947	144.819	306.588	186.885	342.961	30.410	287.868	287.316	276.355	8192	-8191	8192	8192	254	
77591.547	1	1	0	65536	2.67482	9.01003	18.1253	61.3988	243.171	0	0	0	142.216	246.683	825.101	4469.23	22297.5	32767	32767	32767	187.832	60.241	56.223	99.134	122.091	180.000	180.000	180.000	8192	-8191	8192	8192	254	
77591.594	1	1	0	65536	0	0	0	0	0	0	11.4796	11.8589	32767	32767	32767	32767	32767	32767	32757	32758.2	180.000	180.000	180.000	180.000	180.000	180.000	353.325	347.315	8192	-8191	8192	8192	254	
77591.641	1	1	0	65536	60.6119	136.404	90.577	148.576	86.5786	57.3573	120.183	24.9291	32640.6	31591.9	29971.6	29289	30293.6	30724.9	32150.1	32367.2	307.038	282.611	288.164	29.874	218.455	260.202	286.949	69.157	8192	-8191	8192	8192	254	
77591.688	1	1	0	65536	127.148	85.5064	74.2415	62.2698	72.6873	137.302	81.2977	195.35	30547.7	30203.2	28981.5	31407.4	31955.9	30443.8	24784.8	9970.64	169.026	117.714	351.528	255.840	350.978	270.009	313.232	272.551	8192	-8191	8192	8192	254	
77591.688	1	1	0	0	49.6306	11.113	17.1845	7.32882	21.422	5.54633	12.1138	15.3629	2835.66	1544.04	1530.28	1480.64	1446.76	1527.71	1809.48	2136.86	332.978	157.772	328.888	260.591	71.541	208.562	330.332	129.344	8192	-8191	8192	8192	254	
77591.734	1	1	0	0	42.5458	16.2769	20.2888	20.0912	34.275	20.5884	37.1683	50.991	2237.47	2281	2366.7	3422.36	4630.22	4631.67	4621.75	4709.32	104.080	45.082	294.117	239.398	172.662	137.297	320.760	257.398	8192	-8191	8192	8192	254	
77591.781	1	1	0	0	13.3962	57.7915	24.2537	53.2116	15.0424	13.4502	11.1572	12.1924	4711.71	4714.5	5240.47	4826.03	3067.57	1872.95	1246.43	1015.19	259.569	119.236	285.895	322.886	255.066	285.367	81.815	304.699	8192	-8191	8192	8192	254	
77591.828	1	1	0	0	19.1533	8.63207	12.521	6.03146	28.951	7.20319	2.30729	9.83394	841.798	697.322	564.274	429.014	329.12	257.178	210.904	196.149	273.832	181.160	251.142	92.292	258.779	207.268	110.503	23.430	8192	-8191	8192	8192	254	
77591.906	1	1	0	0	8.55204	6.61768	1.31636	2.24886	9.68338	10.721	10.4947	1.88748	180.034	189.361	189.928	179.87	175.909	164.072	154.548	153.803	286.259	71.016	334.243	308.753	255.720	76.539	298.467	201.746	8192	-8191	8192	8192	254	
77591.953	1	1	0	0	7.10337	1.85901	7.97169	13.9731	5.23935	6.65826	8.92558	8.55065	146.861	144.846	147.615	137.952	143.928	124.784	126.269	126.202	285.043	96.755	22.830	38.423	100.891	62.605	223.082	158.750	8192	-8191	8192	8192	254	
77592.000	1	1	0	0	2.94435	7.35697	8.25411	5.07042	3.15983	6.44696	5.23406	2.31802	127.438	125.904	124.87	109.731	122.784	114.284	123.476	118.827	138.111	217.487	54.361	57.164	76.823	32.084	85.516	273.139	8192	-8191	8192	8192	254	
77592.047	1	1	0	0	7.20884	2.94504	6.81848	7.11647	8.04861	31.5393	9.47888	85.0939	118.702	123.312	132.034	137.822	230.481	341.904	392.274	522.332	52.744	285.737	47.484	199.888	266.845	299.020	254.455	315.987	8192	-8191	8192	8192	254	
77592.094	1	1	0	0	52.4874	58.0459	63.1468	13.4458	62.22	18.6261	22.5977	72.7431	483.154	466.014	444.303	381.115	443.25	422.356	386.471	517.38	151.271	327.299	138.003	200.345	325.312	350.142	329.330	311.030	8192	-8191	8192	8192	254	
77592.141	1	1	0	0	54.9822	65.7977	51.8221	12.0441	46.9766	34.8922	6.00792	93.9772	453.505	472.692	443.731	363.12	441.702	409.51	389.144	514.298	128.774	334.752	153.023	73.701	306.490	327.070	239.682	321.699	8192	-8191	8192	8192	254	
77592.219	1	1	0	0	63.4186	75.1583	54.9532	14.6344	70.1556	43.4687	10.9404	89.6605	447.601	454.12	444.812	349.745	424.942	399.572	351.159	483.562	139.662	328.415	140.160	10.127	305.376	314.820	358.534	321.063	8192	-8191	8192	8192	254	
77592.266	1	1	0	0	67.7464	41.3009	70.0695	6.81794	61.4614	24.6057	11.0315	86.8115	423.163	435.173	435.178	333.726	418.221	356.481	326.356	462.63	151.394	348.560	134.597	319.658	316.361	345.919	265.014	310.440	8192	-8191	8192	8192	254	
77592.312	1	1	0	0	61.962	53.2205	61.4246	6.33409	65.3359	34.9597	13.1979	94.4662	384.875	392.635	371.74	266.889	347.043	302.202	258.865	390.385	141.979	318.037	146.581	93.397	322.593	310.319	324.917	320.201	8192	-8191	8192	8192	254	
77592.359	1	1	0	0	65.9024	57.5585	51.7292	2.14075	62.9401	33.2288	6.57492	77.538	324.106	329.25	297.048	207.284	284.615	234.37	196.447	326.601	139.176	313.976	139.676	1.822	315.080	331.500	312.662	294.504	8192	-8191	8192	8192	254	
77592.406	1	1	0	0	67.1627	58.1106	33.4032	0.438892	51.045	23.82	7.35822	75.168	269.106	264.538	233.952	157.418	220.337	189.072	145.808	266.572	140.004	329.057	129.717	135.859	319.707	306.346	329.591	311.638	8192	-8191	8192	8192	254	
77592.453	1	1	0	0	63.0145	49.0277	56.6539	2.11424	44.9912	30.6285	4.55273	76.1213	201.389	196.13	182.63	95.7692	158.933	131.457	88.0096	212.683	137.854	329.181	145.606	294.713	314.291	326.198	248.228	310.751	8192	-8191	8192	8192	254	
77592.453	1	1	0	0	64.1943	59.3775	56.156	5.04008	54.6301	34.1819	10.505	85.1638	146.534	163.264	144.447	67.5433	139.269	107.553	75.375	198.889	143.862	332.489	140.445	169.930	309.260	298.035	354.238	311.837	8192	-8191	8192	8192	254	
77592.508	1	1	0	0	64.0153	60.3301	45.1161	1.44535	47.2707	23.4322	9.03904	88.8143	147.938	145.74	128.635	57.5481	127.058	98.8462	67.2596	194.029	141.840	332.535	141.328	353.849	316.399	323.075	348.201	310.113	8192	-8191	8192	8192	254	
77592.578	1	1	0	0	54.2863	57.238	54.3426	7.75586	52.6319	26.3285	4.18516	84.4534	144.659	147.885	130.995	57.4327	127.264	96.7356	66.5962	196.048	147.921	329.738	137.224	46.431	319.325	315.297	239.312	307.707	8192	-8191	8192	8192	254	
77592.625	1	1	0	0	50.817	51.0131	63.2235	6.45086	54.8116	30.4761	9.48837	69.4035	136.524	145.841	139.231	63.1058	136.591	102.404	69.7067	182.822	148.533	329.628	141.844	96.676	317.178	336.553	302.980	311.463	8192	-8191	8192	8192	254	
77592.672	1	1	0	0	45.2324	52.4005	59.4933	4.4409	43.6136	22.3666	6.53753	85.992	141.048	144.668	140.293	62.2692	126.188	96.9231	72.2981	189.774	137.934	330.738	142.588	135.567	312.351	331.172	302.243	312.016	8192	-8191	8192	8192	254	
77592.719	1	1	0	0	69.4897	50.5585	45.4865	2.80103	47.6856	24.4028	9.58945	79.6026	144.409	144.99	131.712	61.0529	128.255	99.3702	71.0817	188.644	133.688	334.858	142.163	268.036	316.192	317.007	284.164	306.557	8192	-8191	8192	8192	254	
77592.766	1	1	0	0	56.3103	55.0167	52.0232	4.00812	49.3067	22.9381	9.66814	81.0859	129.096	148.481	135.404	56.7837	121.625	91.524	69.7692	187.178	135.266	343.731	135.438	138.498	320.527	327.605	313.001	317.963	8192	-8191	8192	8192	254	
77592.812	1	1	0	0	39.8654	63.9657	51.0106	0.956631	44.7202	23.9855	11.3709	87.0864	126.673	139.808	132.875	55.3894	121.096	91.5673	63.2837	188.827	150.518	333.823	137.078	112.962	310.185	321.152	341.092	316.835	8192	-8191	8192	8192	254	
77592.867	1	1	0	0	44.8375	56.5285	52.9567	1.23477	45.0578	22.3939	5.20668	76.3982	125.067	141.663	126.769	45.7548	118.524	89.8269	61.0144	179.861	147.208	328.399	139.055	45.610	318.222	310.891	328.743	320.747	8192	-8191	8192	8192	254	
77592.914	1	1	0	0	54.4459	52.1219	57.3168	5.02994	49.2482	28.2599	7.91164	84.8429	134.798	139.115	130.308	47.8462	114.264	85.2981	57.9327	181.365	136.105	332.636	131.514	310.719	310.665	333.191	4.097	308.167	8192	-8191	8192	8192	254	
77592.961	1	1	0	0	64.6224	51.7778	45.8164	0.520836	40.1508	21.9118	14.5351	74.0644	127.558	136.26	116.019	42.8942	117.245	83.6394	60.2788	180.024	131.005	326.991	139.071	66.129	325.953	294.766	280.342	318.710	8192	-8191	8192	8192	254	
77593.008	1	1	0	0	54.8389	50.5921	48.5996	5.40388	41.9973	29.4067	6.90436	85.3069	123.726	129.851	120.62	42.875	109.048	80.774	52.25	179.558	137.795	323.208	135.811	345.261	326.202	313.689	275.824	315.271	8192	-8191	8192	8192	254	
77593.078	1	1	0	0	65.6497	60.6333	63.5918	0.975369	51.2362	30.2638	10.0587	71.0491	130.625	137.654	124.889	42.9615	112.438	86.1346	52.6538	172.721	140.586	332.978	142.156	5.285	316.585	311.740	346.084	312.171	8192	-8191	8192	8192	254	
77593.125	1	1	0	0	49.108	48.4916	59.5114	5.63992	50.3572	31.5439	7.65651	78.7387	124.981	128.615	123.957	45.0865	113.755	83.7548	57.4471	177.202	141.683	322.722	152.621	319.534	300.577	309.482	301.606	311.103	8192	-8191	8192	8192	254	
77593.180	1	1	0	0	57.7515	58.575	53.6343	3.02584	44.791	30.9916	6.27881	71.1636	122.63	133.159	125.784	45.4519	113.731	86.7788	59.0144	178	136.971	325.474	137.803	1.574	310.574	313.624	285.711	323.465	8192	-8191	8192	8192	254	
77593.227	1	1	0	0	62.4969	53.5492	45.0713	1.72335	44.4754	25.4453	7.84277	74.7324	129.942	133.077	119.548	42.9327	111.577	82.6875	60.1875	181.596	137.274	332.783	143.417	190.934	318.028	326.222	19.301	312.675	8192	-8191	8192	8192	254	
77593.227	1	1	0	0	61.818	47.0752	53.8666	2.95252	43.1773	28.1172	4.48674	76.2	123.75	136.163	120.543	44.3894	103.625	86.3702	55.4135	173.365	140.735	323.697	142.251	302.939	307.950	312.585	2.221	311.658	8192	-8191	8192	8192	254	
77593.273	1	1	0	0	57.7311	56.725	51.4202	5.56729	51.4747	23.2987	12.6375	78.9407	122.226	133.226	124.096	40.4231	118.096	85.5625	58.1202	172.572	137.403	328.536	138.537	285.252	316.490	314.753	322.645	315.824	8192	-8191	8192	8192	254	
77593.320	1	1	0	0	64.5651	49.804	52.01	5.25202	52.7206	26.2042	5.49885	76.1612	128.216	130.62	117.038	43.8558	120.072	87.6154	59.1154	171.577	149.002	328.016	139.609	281.372	314.164	305.591	283.667	314.582	8192	-8191	8192	8192	254	
77593.367	1	1	0	0	59.1047	54.1646	47.2312	0.877285	36.4883	31.4022	8.35453	76.0973	118.663	135.697	115.75	39.5337	105.62	84.9327	56.4904	174.716	149.137	336.055	143.919	201.041	311.100	304.287	289.333	310.187	8192	-8191	8192	8192	254	
77593.438	1	1	0	0	61.2448	53.7912	55.539	5.82382	53.5692	29.6208	12.9222	60.613	127.591	129.51	119.582	47.0529	115.856	86.2356	53.274	163.827	134.006	336.928	139.414	210.876	321.408	307.739	305.165	318.192	8192	-8191	8192	8192	254	
77593.484	1	1	0	0	57.3192	46.9154	53.3003	3.37089	46.931	28.2486	8.99422	80.1934	126.606	130.726	119.389	40.0529	111.577	83.7788	55.8365	175.822	139.964	326.783	135.374	263.012	321.147	321.944	327.374	310.221	8192	-8191	8192	8192	254	
77593.539	1	1	0	0	67.2191	49.067	45.1032	3.9629	54.1104	25.3937	12.7347	73.2131	132.909	131.269	114.74	44.0962	118.663	82.0481	57.8846	176.62	141.551	331.315	141.241	230.835	316.578	323.546	325.635	315.876	8192	-8191	8192	8192	254	
77593.586	1	1	0	0	49.5009	54.0846	61.023	3.78601	48.7884	22.97	14.0692	66.7209	124.356	128.75	126.798	46.0481	113.649	82.2452	54.9808	164.784	140.781	329.371	145.104	77.072	314.386	321.308	289.564	310.597	8192	-8191	8192	8192	254	
77593.633	1	1	0	0	59.7912	64.4923	45.768	4.78199	50.1556	22.8895	9.70383	83.7638	126.625	133.135	110.716	43.4519	117.558	76.7019	54.3029	169.577	148.140	326.570	145.590	296.936	310.787	306.354	359.009	309.785	8192	-8191	8192	8192	254	
77593.680	1	1	0	0	58.8348	48.8104	48.2563	4.35174	45.1728	30.3957	4.08802	74.7332	128.091	122.611	121.981	42.4856	105.308	82.1298	56.0385	166.837	138.210	328.380	143.696	78.778	323.278	322.474	331.334	308.085	8192	-8191	8192	8192	254	
77593.750	1	1	0	0	48.7172	51.7301	53.3821	0.814257	44.4819	19.9933	12.4876	82.1507	126.168	129.183	116.673	39.6827	112.091	79.875	53.9856	167.909	147.974	324.692	144.286	47.563	311.039	318.933	307.179	316.481	8192	-8191	8192	8192	254	
77593.797	1	1	0	0	55.7921	52.9786	39.5837	4.77055	52.1656	32.3455	11.9558	79.5588	122.413	124.312	112.062	36.7885	112.24	82.7404	51.0481	177.913	147.993	330.717	129.095	31.785	317.915	312.417	325.816	315.410	8192	-8191	8192	8192	254	
77593.844	1	1	0	0	45.1181	57.4189	53.4746	0.993816	44.8627	29.7374	7.26329	95.0826	115.303	122.644	114.639	40.4231	107.452	83.649	51.6058	178.438	136.884	338.135	134.764	103.397	303.250	318.383	336.309	314.151	8192	-8191	8192	8192	254	
77593.898	1	1	0	0	54.6218	62.6014	48.1879	4.31788	37.7268	29.3335	12.1351	75.5002	123.168	122.495	116.207	43.9663	101.173	83.3221	56.0962	173.577	135.652	323.770	134.652	37.876	327.738	315.176	311.539	317.927	8192	-8191	8192	8192	254	
77593.945	1	1	0	0	58.7422	55.7454	46.8952	2.3659	53.0674	25.8735	11.554	80.5761	122.918	123.447	113	37.8221	108.885	77.4087	51.6058	174.519	143.104	332.283	143.527	185.425	312.192	314.687	325.425	316.227	8192	-8191	8192	8192	254	
77593.992	1	1	0	0	50.0677	63.0135	51.7067	2.65381	57.667	23.5255	11.064	81.0709	117.322	130.673	117.207	36.5673	113.005	84.0913	52.5433	176.981	148.645	326.492	137.896	0.803	317.048	317.927	338.307	320.697	8192	-8191	8192	8192	254	
77593.992	1	1	7	0	52.9744	54.0441	55.3265	3.20654	46.4004	20.0375	2.82988	70.8346	114.255	125.245	117.928	36.8942	111.13	76.5962	50.1827	168.688	138.140	326.303	136.151	169.214	313.950	303.353	312.654	307.174	8192	-8191	8192	8192	254	
77594.039	1	1	0	0	51.7741	52.432	61.1223	3.19447	52.4873	18.5574	5.98966	86.9118	116.514	127.654	116.683	36.3462	107.596	74.2308	53.2548	176.332	143.302	334.631	147.481	151.304	316.712	304.723	345.257	314.692	8192	-8191	8192	8192	254	
77594.086	1	1	0	0	46.1681	57.3125	46.9344	2.38136	52.3149	23.5665	10.7495	82.487	120.505	128.298	116.822	36.4663	107.375	82.5577	55.5337	175.827	133.620	332.274	149.045	83.952	309.210	329.518	345.585	315.012	8192	-8191	8192	8192	254	
77594.133	1	1	0	0	48.7357	58.4121	48.2181	5.30489	49.7718	22.3856	7.56379	82.8975	126.038	136.024	122.053	47.2067	115.731	89.774	63.9423	185.418	133.347	325.427	145.177	8.871	315.015	321.126	308.104	312.815	8192	-8191	8192	8192	254	
77594.203	1	1	0	0	50.7897	52.3001	49.6522	1.26902	45.3623	30.7077	6.28254	83.5877	131.745	142.577	132.649	62.3798	134.611	110.519	82.5048	209.514	145.538	329.365	138.669	249.111	314.821	331.403	310.054	316.561	8192	-8191	8192	8192	254	
77594.258	1	1	0	0	52.9761	53.7727	56.445	7.55112	46.139	28.5791	16.7569	85.2766	163.308	168.649	161.144	86.5288	161.356	132.24	116.106	234.115	142.844	313.554	135.429	200.866	324.999	319.235	326.564	320.949	8192	-8191	8192	8192	254	
77594.305	1	1	0	0	52.2584	55.8841	57.4221	2.28024	49.3888	29.1792	6.62404	73.6528	181.457	202.346	186.293	120.087	201.183	179.812	169.928	295.505	138.250	316.638	133.181	182.279	320.855	305.715	13.130	316.052	8192	-8191	8192	8192	254	
77594.352	1	1	0	0	65.4762	50.015	50.6129	13.0553	45.3779	19.7369	14.2607	78.8473	250.332	258.88	289.476	236.375	348.26	360.894	392.332	555.163	145.278	332.291	139.409	54.559	325.270	325.319	24.282	304.895	8192	-8191	8192	8192	254	
77594.398	1	1	0	0	53.598	73.6023	72.0143	18.3846	55.4857	25.5667	8.14658	79.8056	537.668	517.154	472.793	384.101	443.409	332.221	231.596	295.005	140.245	338.725	143.292	77.117	300.093	335.695	294.247	324.062	8192	-8191	8192	8192	254	
77594.445	1	1	0	0	67.6608	47.7617	50.4498	5.76926	47.6137	30.9999	14.0094	80.4787	212.577	189.74	170.269	78.9471	134.005	94.5096	60	173.577	146.786	331.133	141.124	58.676	306.777	331.377	318.253	313.641	8192	-8191	8192	8192	254	
77594.492	1	1	0	0	57.0206	43.9543	43.1186	2.63908	48.8311	22.8505	13.6686	80.1184	122.034	123.947	111.663	39.4087	107.793	74.5048	49.851	171.529	138.548	333.370	140.432	317.027	311.999	325.880	297.513	314.004	8192	-8191	8192	8192	254	
77594.547	1	1	0	0	60.7824	55.8264	54.4002	3.34188	44.6563	25.0832	8.57614	77.6066	116.322	131.37	118.649	41.2452	112.75	75.5577	51.1394	172.909	135.733	329.425	146.498	82.446	319.121	313.489	300.840	317.074	8192	-8191	8192	8192	254	
77594.617	1	1	0	0	53.8629	51.1779	48.2763	8.12122	52.309	25.1608	7.00982	72.1849	121.99	132.452	108.49	38.6923	112.721	74.6827	52.5865	169.452	145.834	321.908	130.451	121.579	318.193	317.160	300.948	319.429	8192	-8191	8192	8192	254	
77594.664	1	1	0	0	53.2038	45.6949	54.5926	5.12968	49.0841	28.1621	6.16902	69.419	114.567	122.88	114.731	40.1971	104.486	76.9808	54.0481	170.736	144.849	340.724	142.175	264.655	313.660	310.664	346.698	310.193	8192	-8191	8192	8192	254	
77594.711	1	1	0	0	51.9757	45.713	45.9779	3.72354	54.7049	25.3849	9.67154	82.5711	114.74	132.462	117.409	36.8173	110.442	80.3606	56.7452	178.216	133.415	336.050	140.695	53.567	313.667	326.095	305.018	319.556	8192	-8191	8192	8192	254	
77594.758	1	1	0	0	40.6267	48.0265	52.6505	4.48633	47.8546	28.778	8.17937	76.502	114.226	121.736	117.038	41.4087	112.226	80.9663	52.6442	170.481	138.815	332.772	140.988	157.327	323.324	330.730	341.409	313.864	8192	-8191	8192	8192	254	
77594.758	1	1	0	0	48.5218	57.8846	57.96	1.01527	53.3767	20.148	7.95622	78.5502	120.712	126.707	114.688	37.8317	117.365	81.2212	47.3413	170.413	135.475	330.620	141.178	280.260	318.774	336.771	330.353	320.935	8192	-8191	8192	8192	254	
77594.805	1	1	0	0	53.114	65.5888	53.0692	4.43025	47.4104	25.1902	8.0619	84.416	120.736	129.913	115.404	36.9952	107.159	77.7308	53.1298	172.072	146.184	335.706	136.446	123.731	315.902	311.579	2.174	311.181	8192	-8191	8192	8192	254	
77594.852	1	1	0	0	51.3645	49.8749	50.0953	3.62789	48.0358	29.0817	12.3218	80.7318	119.024	116.74	117	38.0144	102.808	79.9808	53.5096	172.154	138.764	327.871	139.009	41.552	308.805	318.056	326.110	319.352	8192	-8191	8192	8192	254	
77594.906	1	1	0	0	61.1716	55.3306	44.3295	5.15118	43.8358	21.0809	7.23539	76.7342	124.63	125.221	110.938	39.4038	105.803	76.8125	52.4038	168.986	146.814	324.883	142.718	32.002	308.946	313.047	303.532	314.797	8192	-8191	8192	8192	254	
77594.977	1	1	0	0	51.9151	59.4093	48.0982	1.24742	47.488	24.6807	8.62254	81.6871	119.043	136.87	116.149	41.0577	106.442	78.5433	57.024	178.938	143.688	327.690	140.004	175.959	316.598	314.392	285.018	313.038	8192	-8191	8192	8192	254	
77595.023	1	1	0	0	51.6733	59.081	46.1779	1.88315	51.6139	18.9465	1.52316	72.0513	114.952	124.067	109.933	40.9567	110.106	76.6154	51.1731	165.332	144.790	330.440	147.628	237.324	317.581	329.800	84.531	318.832	8192	-8191	8192	8192	254	
77595.070	1	1	0	0	53.5363	52.1866	45.278	2.34333	42.6558	23.447	13.6635	77.6099	119.827	124.995	115.279	43.899	104.606	78.2596	51.1587	157.856	142.060	332.123	141.010	23.508	320.669	320.555	343.895	315.698	8192	-8191	8192	8192	254	
77595.117	1	1	0	0	57.8593	55.6881	58.2687	1.34646	49.1059	25.0744	3.46578	76.4718	121.567	120.644	116.418	38.4327	103.413	74.9087	52.7837	168.947	140.262	330.547	138.494	300.734	322.159	324.881	247.202	313.756	8192	-8191	8192	8192	254	
77595.172	1	1	0	0	43.1066	57.1454	54.0248	1.22311	59.6158	23.4849	5.99091	68.079	112.274	128.942	120.135	38.9423	113.457	78.5481	52.8317	158.639	143.308	322.250	142.905	34.576	318.326	315.013	349.623	309.025	8192	-8191	8192	8192	254	
77595.219	1	1	0	0	59.8113	55.8561	45.2505	2.05669	51.5011	24.1016	11.6866	65.7302	119.856	123.995	115.385	37.7212	107.596	74.5144	54.1538	155.731	134.754	334.571	143.412	102.508	315.286	328.230	344.458	312.396	8192	-8191	8192	8192	254	
77595.266	1	1	0	0	50.5338	48.0648	54.5599	5.82568	47.9897	22.794	5.82633	80.9463	115.173	124.875	117.635	39.476	103.38	78.5817	54.7837	173.942	142.233	333.294	135.741	357.161	316.931	329.427	336.611	310.318	8192	-8191	8192	8192	254	
77595.312	1	1	0	0	60.7379	52.2515	48.843	1.49248	51.7309	30.1578	10.5337	86.0653	120.587	131.63	116.942	40.6731	109.635	77.2452	46.7404	182.668	144.972	325.372	135.490	254.762	315.121	323.561	3.060	324.733	8192	-8191	8192	8192	254	
77595.383	1	1	0	0	47.8669	53.8195	57.1249	4.40036	56.7893	30.5221	9.13022	83.7513	118.769	124.62	121.139	37.5817	109.913	77.8221	52.4423	175.606	143.218	333.708	142.248	320.141	307.732	331.717	303.776	318.148	8192	-8191	8192	8192	254	
77595.430	1	1	0	0	58.0946	51.5076	44.5101	1.28771	47.7506	18.2867	8.85221	72.3513	117.808	119.144	112.582	41.75	103.88	72.5096	49.3173	161.048	146.775	330.025	133.908	48.638	319.652	342.900	313.739	305.814	8192	-8191	8192	8192	254	
77595.477	1	1	0	0	63.357	59.7418	40.6514	7.51995	46.0407	23.9899	11.2256	85.475	122.111	128.034	110.822	38.6058	103.385	81.9615	53.6106	171.24	146.642	334.675	144.092	29.649	307.639	318.477	276.405	321.791	8192	-8191	8192	8192	254	
77595.523	1	1	0	0	42.8922	65.6635	54.2423	2.34019	53.8629	23.475	9.1422	67.4787	123.188	132.351	116.332	36.1106	111.654	77.6683	54.5096	165.308	136.880	328.279	136.660	129.256	316.970	317.266	303.909	313.803	8192	-8191	8192	8192	254	
77595.531	1	1	0	0	54.5666	45.4335	46.8727	5.21363	41.6231	23.9985	10.6302	75.9836	121.649	125.101	112.846	40.2067	105.413	83.3077	52.9712	167.409	137.802	329.722	130.329	196.877	316.023	307.925	293.761	312.423	8192	-8191	8192	8192	254	
77595.578	1	1	0	0	51.2801	59.5099	54.0424	3.16849	45.4595	33.9973	11.6192	70.2645	117.553	129.029	114.851	43.125	106.356	84.226	55.3365	167.913	138.021	325.810	136.666	197.259	318.036	315.809	339.300	317.145	8192	-8191	8192	8192	254	
77595.625	1	1	0	0	47.1646	51.0622	54.0729	4.48949	51.5099	26.6448	7.20564	81.804	107.962	125.471	109.692	39.399	113.356	75.3558	49.7019	175.726	140.887	332.242	131.622	292.994	324.872	338.811	242.752	315.800	8192	-8191	8192	8192	254	
77595.672	1	1	0	0	48.7733	49.303	43.3752	5.02134	49.288	23.9264	10.5032	83.8894	123.74	121.788	111.438	43.3462	112.25	77.1442	51.6635	177.154	139.657	323.237	140.746	20.585	314.391	320.013	308.070	312.518	8192	-8191	8192	8192	254	
77595.742	1	1	0	0	52.2121	51.3682	45.0896	1.27725	52.5995	22.1481	9.11603	76.0345	113.812	116.76	111.303	38.1346	110.207	81.0721	51.6731	175.548	148.993	336.530	134.608	322.169	314.345	319.209	6.107	308.475	8192	-8191	8192	8192	254	
77595.789	1	1	0	0	54.001	57.0974	50.82	1.13961	39.4305	21.484	9.34235	73.6982	126.221	132.962	119.154	37.4856	102.236	76.8846	54.5096	179.014	139.674	338.688	131.489	239.050	321.009	314.619	330.066	317.553	8192	-8191	8192	8192	254	
77595.844	1	1	0	0	63.9532	49.2819	47.3964	3.66148	55.8595	24.6469	5.78101	70.1993	124.654	126.192	113.659	45.9567	115.274	77.3846	54.9231	172.615	137.036	332.356	147.011	230.245	309.678	327.437	302.478	314.795	8192	-8191	8192	8192	254	
77595.891	1	1	0	0	57.9703	46.1049	52.7829	4.97296	55.6078	25.3986	4.52384	82.75	127.606	127.683	123.043	42.101	113.663	81.1394	58.0913	175.024	146.247	329.110	144.950	167.412	315.444	313.605	325.127	321.166	8192	-8191	8192	8192	254	
77595.938	1	1	0	0	54.5532	54.8314	49.74	6.23179	47.5664	19.4798	7.39914	81.3487	130.178	132.995	125.438	40.1202	110.971	83.0913	53.3846	184.553	147.114	331.788	139.285	143.758	311.324	319.852	270.794	317.023	8192	-8191	8192	8192	254	
77595.984	1	1	0	0	54.7353	56.839	53.9947	1.91007	42.4996	29.8126	12.023	72.8297	117.51	128.856	124.798	42.0529	113.25	85.1346	53.6154	179.096	140.203	334.556	140.093	234.645	318.696	321.292	312.965	318.656	8192	-8191	8192	8192	254	
77596.055	1	1	0	0	58.2192	55.0695	49.2491	7.06535	53.5339	19.7317	3.12608	68.5695	120.438	127.337	119.087	41.4471	106.341	80.7644	54.2212	169.625	144.977	323.789	139.634	65.167	316.226	329.053	314.490	311.998	8192	-8191	8192	8192	254	
77596.102	1	1	0	0	62.4587	57.5819	50.0382	3.99721	50.7164	19.6109	9.80381	69.9818	125.197	134.216	122.808	39.9615	110.13	83.9423	51.7452	185.731	141.392	327.700	138.442	6.996	313.167	325.597	322.865	315.987	8192	-8191	8192	8192	254	
77596.148	1	1	0	0	47.4635	62.0561	42.5313	4.69262	52.3708	30.6675	10.6901	75.068	122.442	130.938	122.466	45.2788	121.135	83.3173	55.0577	175.962	145.822	325.819	133.414	243.342	313.674	327.267	333.864	320.799	8192	-8191	8192	8192	254	
77596.203	1	1	0	0	56.2138	42.3159	62.1567	3.63957	54.6681	21.2106	4.40406	82.7068	124.567	129.096	123.841	42.6346	119.567	84.0721	56.9856	171.611	136.244	334.180	135.297	164.853	313.812	293.152	311.176	322.406	8192	-8191	8192	8192	254	
77596.250	1	1	0	0	54.7034	50.1523	54.3638	4.13728	49.3055	17.2014	2.8639	79.6829	126.611	126.779	116.62	44.1298	111.971	79.8798	53.4135	177.019	138.092	331.211	141.139	3.865	323.642	317.754	304.529	310.280	8192	-8191	8192	8192	254	
77596.297	1	1	0	0	56.3628	48.3804	52.9123	4.589	47.7725	26.5664	12.7109	76.3186	127	126.938	115.572	37.4712	111.952	83.4279	53.2115	176.865	148.502	333.893	134.645	211.783	312.182	319.006	334.485	317.234	8192	-8191	8192	8192	254	
77596.297	1	1	0	0	59.4308	53.7774	60.7299	1.51652	54.6507	28.3361	4.904	79.3379	134.226	125.875	125.524	42.2788	117.043	84.6971	57.9327	182.971	136.474	330.334	138.958	112.753	322.551	312.540	286.089	317.765	8192	-8191	8192	8192	254	
77596.344	1	1	0	0	57.0169	62.8256	50.6141	1.70855	51.6888	23.2959	3.37124	79.1217	126.471	136.514	117.005	41.5337	118.918	80.3221	57.4519	175.433	143.777	331.049	137.231	115.756	309.913	334.233	1.594	323.166	8192	-8191	8192	8192	254	
77596.414	1	1	0	0	53.4044	56.35	54.7258	6.33641	50.0086	23.0975	11.4849	78.6752	118.582	128.625	123.894	42.2981	120.029	81.3462	57.726	175.111	142.153	330.812	137.655	102.726	307.966	309.415	344.274	323.621	8192	-8191	8192	8192	254	
77596.461	1	1	0	0	44.7016	49.5254	51.8162	0.644181	39.8108	24.0556	6.0961	76.2767	118.534	123.308	119.394	47.9856	105.327	82.0096	60.5577	167.24	148.371	332.737	142.477	157.482	311.211	335.765	335.358	315.486	8192	-8191	8192	8192	254	
77596.508	1	1	0	0	46.8883	51.3558	45.4931	3.43731	48.7584	23.6173	11.5759	79.6592	121.577	127.774	119.082	43.4135	114.5	79.399	56.6875	180.288	152.492	323.823	141.198	119.420	300.575	319.343	316.951	317.235	8192	-8191	8192	8192	254	
77596.562	1	1	0	0	50.9283	49.8992	50.1694	6.5438	45.6134	22.5249	8.3924	69.3911	123.615	132.014	120.798	45.5481	107.736	78.9952	55.024	177.409	148.714	330.986	139.926	10.446	305.573	323.000	351.629	317.416	8192	-8191	8192	8192	254	
77596.609	1	1	0	0	59.0807	48.1412	50.5761	3.14869	44.3319	30.0676	9.52578	79.2279	123.029	124.923	114.466	41.8077	106.413	89.8846	53.4183	180.567	135.086	321.206	134.008	317.730	321.298	320.629	338.401	314.469	8192	-8191	8192	8192	254	
77596.656	1	1	0	0	54.4857	61.6378	49.2739	4.23304	50.1017	19.9581	13.2815	88.4362	125.264	128.149	120.288	44.1058	119.221	82.6106	55.4327	180.115	150.359	321.307	141.024	331.108	321.784	317.296	326.720	314.254	8192	-8191	8192	8192	254	
77596.703	1	1	0	0	51.9027	50.0284	53.5932	1.91779	58.3405	22.7556	6.57246	77.6133	124.947	123.837	117.745	43.3365	116.625	79.8029	60.3077	177.466	147.417	325.119	141.039	215.361	314.057	321.551	313.825	314.471	8192	-8191	8192	8192	254	
77596.750	1	1	0	0	62.1869	51.0529	48.2202	4.13187	42.495	30.2356	4.87155	77.3381	129.788	129.712	116.663	42.4087	107.635	85.0288	61.7356	175.755	136.116	333.492	145.401	258.880	314.706	319.880	305.743	315.587	8192	-8191	8192	8192	254	
77596.797	1	1	0	0	60.6051	49.8708	43.4314	1.02161	50.246	28.383	6.20292	85.6479	129.231	126.043	118.803	39.5673	110.812	83.5144	55.7212	180.447	145.550	333.793	139.118	175.926	324.005	329.608	3.761	313.029	8192	-8191	8192	8192	254	
77596.852	1	1	0	0	54.3145	46.9156	50.3689	8.25346	55.0175	22.3079	10.9452	69.707	127.159	126.885	122.212	42.6923	114.385	83.3798	57.976	179.962	146.669	329.348	144.393	263.024	324.191	305.701	357.286	309.582	8192	-8191	8192	8192	254	
77596.922	1	1	0	0	60.0709	53.6046	50.8353	7.18206	51.1171	28.9531	6.45495	75.0533	124.399	127.721	117.764	40.0625	113.312	83.8846	51.0962	182.827	132.624	339.128	132.240	237.015	317.815	318.115	7.738	311.899	8192	-8191	8192	8192	254	
77596.969	1	1	0	0	44.8597	47.9772	40.3277	1.97897	49.9689	29.6022	8.9567	88.522	126.077	131.332	117.183	43.8173	116.654	84.1346	56.2981	177.495	144.696	334.169	136.394	121.275	318.152	327.073	319.176	317.022	8192	-8191	8192	8192	254	
77597.016	1	1	0	0	48.1016	46.8111	47.674	1.3265	44.4095	25.7399	11.3796	77.9414	121.659	131.375	113.918	45.6538	116.596	83.2596	55.6058	183.438	143.773	324.997	131.287	102.880	325.262	318.587	341.916	305.971	8192	-8191	8192	8192	254	
77597.062	1	1	0	0	58.3658	54.9138	37.0601	5.09435	48.5261	23.7368	7.38545	63.1615	120.534	126.625	116.904	46.2885	114.135	82.4663	55.1394	177.447	137.758	333.722	145.504	338.208	309.900	324.987	323.004	310.869	8192	-8191	8192	8192	254	
77597.062	1	1	0	0	65.4209	55.1466	47.9234	4.73638	40.3364	24.6841	11.6985	78.157	128.663	129.212	123.918	45.5769	112.51	82.9231	60.6298	181.683	141.940	324.827	133.395	144.098	321.321	332.941	337.476	312.647	8192	-8191	8192	8192	254	
77597.109	1	1	0	0	61.294	52.0026	40.92	3.81068	45.4645	27.421	7.42029	74.1115	129.582	128.986	117.827	41.9519	111.668	82.9567	55.2452	178.188	140.525	323.540	139.153	62.596	312.843	318.728	3.787	315.381	8192	-8191	8192	8192	254	
77597.156	1	1	0	0	66.7686	46.9249	46.6359	4.02207	46.319	28.5301	5.60163	73.3014	127.404	127.053	119.562	41.9808	114.096	82.7404	55.6298	168.404	138.286	326.189	140.704	344.131	326.366	322.476	314.675	312.871	8192	-8191	8192	8192	254	
77597.211	1	1	0	0	56.7174	48.6011	40.9775	3.49592	45.5171	26.9243	11.0096	78.3221	124.601	122.889	121.034	46.3606	112.524	82.5625	57.1538	173.486	144.081	329.074	137.609	242.245	311.921	327.387	327.618	312.309	8192	-8191	8192	8192	254	
77597.281	1	1	8	0	61.7389	55.7317	55.1689	6.51112	46.7949	21.1425	2.35218	78.6485	122.514	134.601	120.346	43.976	106.101	80.774	54.3173	178.212	137.994	336.404	143.237	286.674	318.116	310.371	288.366	320.251	8192	-8191	8192	8192	254	
77597.328	1	1	0	0	54.0446	58.1108	55.1974	2.68733	45.4667	25.8286	5.67123	74.0922	123.418	130.76	115.303	41.2404	112.413	81.7019	53.6346	181.019	145.055	327.450	132.410	0.589	323.380	312.362	302.837	314.655	8192	-8191	8192	8192	254	
77597.375	1	1	0	0	57.6385	46.3889	51.5225	0.782889	43.6961	33.2382	8.15001	86.443	125.591	129.231	125.702	41.5096	109.885	85.2548	62.1346	177	139.784	342.024	139.435	251.788	317.956	317.867	297.151	314.490	8192	-8191	8192	8192	254	
77597.422	1	1	0	0	41.5845	53.5937	53.0972	3.28139	57.2754	30.4509	5.69348	60.4807	120.904	119.418	121.562	42.0962	118.88	85.2356	56.5577	167.75	146.019	335.030	138.799	142.912	317.993	319.155	339.163	311.464	8192	-8191	8192	8192	254	
77597.469	1	1	0	0	48.8648	51.7706	39.1636	2.96679	43.7552	27.9133	10.7877	73.3782	121.188	123.351	115.625	46.6635	115.067	79.9808	60.5144	184.163	139.390	322.243	135.609	182.844	322.242	307.487	344.462	308.692	8192	-8191	8192	8192	254	
77597.523	1	1	0	0	54.4306	49.6456	59.3983	5.323	41.5211	28.5337	8.28948	89.56	126.654	132.178	119.553	40.7596	113.01	82.3702	58.8317	184.37	148.486	322.816	142.513	19.512	318.990	325.773	4.164	317.377	8192	-8191	8192	8192	254	
77597.570	1	1	0	0	43.4296	52.4098	53.4553	2.3799	48.8272	25.8232	12.4952	77.7693	120.909	129.764	121.524	42.1538	112.471	82.1106	61.8269	175.053	144.327	322.782	134.778	272.395	324.315	324.610	340.436	320.584	8192	-8191	8192	8192	254	
77597.617	1	1	0	0	57.0723	46.1676	54.9786	4.86607	52.9154	33.9034	8.26207	64.0396	126.933	132.428	119.144	42.4038	111.88	81.0721	54.5625	169.663	140.322	330.137	136.345	278.647	309.055	303.926	320.372	316.000	8192	-8191	8192	8192	254	
77597.688	1	1	0	0	53.5235	48.0988	45.1583	8.37158	44.612	18.6272	6.08354	82.2609	116.317	127.827	114.712	45.0962	112.649	87.5673	59.2644	176.019	136.612	325.387	140.762	345.441	314.578	327.765	299.038	313.258	8192	-8191	8192	8192	254	
77597.734	1	1	0	0	53.7934	53.9172	49.8866	3.14271	44.9176	24.361	7.5364	71.2963	124.798	127.591	121.769	40.2308	108.212	88.6202	56.3798	171.101	145.572	322.636	137.532	148.102	313.787	329.549	325.208	310.713	8192	-8191	8192	8192	254	
77597.781	1	1	0	0	68.3643	52.4278	51.7984	6.66134	53.8774	32.4549	7.96497	74.04	129.558	132.226	119.736	42.226	112.688	84.6683	56.8942	176.923	149.425	328.518	134.088	207.431	317.236	304.010	323.621	318.745	8192	-8191	8192	8192	254	
77597.828	1	1	0	0	57.9588	53.4747	46.0419	5.38799	44.3605	33.1253	7.90756	84.0281	132.812	126.12	119.067	43.7885	112.385	85.5625	54.5673	181.37	147.094	328.579	136.352	232.072	305.482	331.102	356.969	312.803	8192	-8191	8192	8192	254	
#DATA ENDS
