BOXY.EXE: ISS Imagent Data Acquisition Program Version 0.82
Ascii Record File

#ACQ INFORMATION
1  Detector Channels 
8  External MUX Channels 
4  Auxiliary Analog Channels 
5000  Waveform (CCF) Frequency (Hz)
4  Waveforms Skipped 
26  Waveforms Averaged 
1  Cycles Averaged 
8  Acquisitions per Waveform 
1  Auxiliary Digital Channels 

#Data Update Rate
20.8333  Update Rate (Hz) 
FALSE -- Use Phase Reference
FALSE -- Use Continuous Phase Reference
FALSE -- Use Intensity Reference
FALSE -- Use Continuous Intensity Reference

#FILE INFORMATION
TRUE -- External MUX Channel results are PARSED.
FALSE -- AC DC and Phase are NOT grouped.
TRUE -- Companion Program Settings File CREATED.
FALSE -- AC data not excluded
FALSE -- DC data not excluded
FALSE -- Phase data not excluded
FALSE -- Auxillary Chn. data not excluded
Tab delimiters

#CALIBRATION STATE
FALSE -- Waveform Calibration Values NOT applied.

#WAVELENGTH DATA
Wavelength Index	Wavelength	Comp1 ExtCoef	Comp2 ExtCoef	Comp3 ExtCoef	Comp4 ExtCoef	BackGround	Weight	

1	6.600e+02	1.486e+00	3.844e+00	1.000e+00	1.000e+00	1.890e-02	1.000e+00	
2	6.900e+02	2.315e+00	1.792e+00	1.000e+00	1.000e+00	2.180e-02	1.000e+00	
3	7.500e+02	1.000e+00	1.000e+00	1.000e+00	1.000e+00	3.010e-03	1.000e+00	
4	7.750e+02	1.000e+00	1.000e+00	1.000e+00	1.000e+00	3.240e-03	1.000e+00	
5	7.850e+02	1.000e+00	1.000e+00	1.000e+00	1.000e+00	1.660e-02	1.000e+00	
6	8.000e+02	1.000e+00	1.000e+00	1.000e+00	1.000e+00	1.480e-02	1.000e+00	
7	8.250e+02	1.000e+00	1.000e+00	1.000e+00	1.000e+00	1.620e-02	1.000e+00	
8	8.300e+02	1.000e+00	1.000e+00	1.000e+00	1.000e+00	2.620e-02	1.000e+00	


#AUX CALIBRATION VALUES
Val Type	aux-1	aux-2	aux-3	aux-4	

Term	0.0000e+00	0.0000e+00	0.0000e+00	0.0000e+00	
Factor	1.0000e+00	1.0000e+00	1.0000e+00	1.0000e+00	


#WF CALIBRATION VALUES
A = Detector Channel
Val Type	A-AC1	A-AC2	A-AC3	A-AC4	A-AC5	A-AC6	A-AC7	A-AC8	A-DC1	A-DC2	A-DC3	A-DC4	A-DC5	A-DC6	A-DC7	A-DC8	A-Ph1	A-Ph2	A-Ph3	A-Ph4	A-Ph5	A-Ph6	A-Ph7	A-Ph8	

Term	0.00000e+00	0.00000e+00	0.00000e+00	0.00000e+00	0.00000e+00	0.00000e+00	0.00000e+00	0.00000e+00	0.00000e+00	0.00000e+00	0.00000e+00	0.00000e+00	0.00000e+00	0.00000e+00	0.00000e+00	0.00000e+00	-1.05892e+02	-9.99249e+01	-2.86485e+02	-2.62799e+02	-2.45797e+02	-2.48632e+02	-7.72400e+01	-7.86612e+01	
Factor	3.48934e-02	2.88771e-02	2.23541e-02	4.58344e-02	3.11822e-02	3.92311e-02	3.80806e-02	2.80088e-02	4.70955e+01	8.07534e+01	3.66973e+01	1.04434e+02	6.45565e+01	3.94082e+01	9.13796e+01	5.49806e+01	X	X	X	X	X	X	X	X	



#DISTANCE SETTINGS
A = Detector Channel
A-1	A-2	A-3	A-4	A-5	A-6	A-7	A-8	

1.5000e+00	1.5000e+00	1.5000e+00	1.5000e+00	1.5000e+00	1.5000e+00	1.5000e+00	1.5000e+00	



#ADDITIONAL SIGNAL INFORMATION
A = Detector Channel
Info. Type	A-1	A-2	A-3	A-4	A-5	A-6	A-7	A-8	

cal. block. ind.	1	1	1	1	1	1	1	1	
wavelength ind.	0	1	2	3	4	5	6	7	
weight	1.0000e+00	1.0000e+00	1.0000e+00	1.0000e+00	1.0000e+00	1.0000e+00	1.0000e+00	1.0000e+00	


#CALIBRATION BLOCK OPTICAL PROPS
Calib. Block Num.	WaveLen Index	Absorption	Scattering	

1	1	1.080e-01	9.000e+00	
1	2	1.300e-01	1.070e+01	
1	3	1.130e-01	9.400e+00	
1	4	1.210e-01	1.000e+01	
1	5	1.080e-01	9.000e+00	
1	6	1.300e-01	1.070e+01	
1	7	1.150e-01	9.600e+00	
1	8	1.330e-01	1.090e+01	

Calib. Block Num.	WaveLen Index	Absorption	Scattering	

2	1	1.120e-01	4.400e+00	
2	2	1.200e-01	5.700e+00	
2	3	1.140e-01	4.600e+00	
2	4	1.160e-01	5.100e+00	
2	5	1.120e-01	4.400e+00	
2	6	1.200e-01	5.700e+00	
2	7	1.150e-01	4.800e+00	
2	8	1.210e-01	6.000e+00	

Calib. Block Num.	WaveLen Index	Absorption	Scattering	

3	1	9.300e-02	8.700e+00	
3	2	1.010e-01	1.040e+01	
3	3	9.500e-02	9.000e+00	
3	4	9.700e-02	9.600e+00	
3	5	9.300e-02	8.700e+00	
3	6	1.010e-01	1.040e+01	
3	7	9.600e-02	9.300e+00	
3	8	1.030e-01	1.080e+01	

Calib. Block Num.	WaveLen Index	Absorption	Scattering	

4	1	1.000e-01	1.000e+01	
4	2	1.000e-01	1.000e+01	
4	3	1.000e-01	1.000e+01	
4	4	1.000e-01	1.000e+01	
4	5	1.000e-01	1.000e+01	
4	6	1.000e-01	1.000e+01	
4	7	1.000e-01	1.000e+01	
4	8	1.000e-01	1.000e+01	



#DATA BEGINS
time	group	step	mark	flag	A-AC1	A-AC2	A-AC3	A-AC4	A-AC5	A-AC6	A-AC7	A-AC8	A-DC1	A-DC2	A-DC3	A-DC4	A-DC5	A-DC6	A-DC7	A-DC8	A-Ph1	A-Ph2	A-Ph3	A-Ph4	A-Ph5	A-Ph6	A-Ph7	A-Ph8	aux-1	aux-2	aux-3	aux-4	digaux	

76997.906	1	1	0	768	3724.39	7.63348	3524.48	1602.16	531.258	4897.53	6.13446	4.74302	5616.97	86.6875	5099.78	2628.98	928.144	8550.92	91.2163	76.2308	94.295	262.131	268.455	272.575	274.458	268.695	97.010	237.863	8192	-8191	8192	8192	254	
76997.953	1	1	0	0	4617.85	4912.36	4201.31	9.2814	3545.64	1635.48	520.826	4953.36	6831.51	7886.31	6435.38	86.8125	5082.08	2630.06	948.106	8550.01	93.096	281.747	92.493	293.359	267.922	271.629	275.079	268.766	8192	-8191	8192	8192	254	
76998.008	1	1	0	0	4632.13	4809.12	4301.04	6.97064	3538.6	1657.49	503.061	4898.7	6823.03	7855.46	6511.4	87.6442	5128.99	2624.05	933.38	8531.25	92.781	280.844	91.980	12.148	268.445	272.412	274.548	268.548	8192	-8191	8192	8192	254	
76998.055	1	1	0	0	4570.68	4930.72	4190.69	4.34809	3455.89	1676.68	503.058	4900.92	6788.8	7918.51	6467.97	90.6779	5071.55	2658	929.538	8601.89	93.119	281.215	91.847	276.544	267.769	271.964	274.271	268.430	8192	-8191	8192	8192	254	
76998.125	1	1	0	0	4567.32	4846.89	4297.48	8.10972	3544.77	1631.43	516.223	4968.16	6797.11	7838.85	6596.75	87.0769	5107.55	2624.79	927.279	8638.05	93.282	281.477	91.067	273.729	268.290	271.631	274.168	268.700	8192	-8191	8192	8192	254	
76998.172	1	1	0	0	4676.23	4913.06	4246.72	1.26573	3518.67	1670.68	486	4945.77	6861.65	7903.27	6547.99	90.6683	5120.33	2639.59	919.865	8575.32	93.188	282.167	92.475	177.502	268.897	272.258	275.195	268.892	8192	-8191	8192	8192	254	
76998.219	1	1	0	0	4558.19	4829.49	4294.66	7.01447	3416.15	1625.91	513.215	4973.29	6822.76	7843.72	6565.64	93.2115	5053.69	2622.45	922.837	8576.99	93.155	281.840	91.970	258.237	268.920	273.167	273.980	268.150	8192	-8191	8192	8192	254	
76998.266	1	1	0	0	4614.98	4846.21	4311.91	5.18094	3477.98	1591.54	497.026	4895.62	6836.26	7813.05	6574.41	95.9808	5099.97	2598.48	907.25	8549.5	93.974	281.333	91.685	257.848	269.234	272.145	276.034	268.623	8192	-8191	8192	8192	254	
76998.312	1	1	0	0	4585.62	4727.81	4300.85	5.38207	3516.33	1729.1	504.376	4910.7	6817.43	7750.77	6619.36	88.3317	5064.49	2674	920.389	8559.7	93.710	281.891	91.923	176.515	268.307	272.157	273.888	269.416	8192	-8191	8192	8192	254	
76998.367	1	1	0	0	4574.36	4865.27	4314.86	2.03872	3440.13	1611.72	514.431	4874.41	6793.08	7892.75	6633.52	95.8029	5063.69	2600.3	936.072	8582.4	93.635	282.040	91.026	191.176	267.842	273.299	277.334	268.708	8192	-8191	8192	8192	254	
76998.414	1	1	0	0	4574.45	4879.73	4311.11	3.58423	3483.73	1604.59	526.148	4935.02	6786.65	7848.24	6626.48	86.8702	5118.49	2627.26	937.894	8571.76	93.652	282.391	92.150	246.426	268.968	272.888	274.581	269.226	8192	-8191	8192	8192	254	
76998.461	1	1	0	0	4599.99	4777.47	4350.84	4.24334	3501.54	1600.4	517.712	4946.94	6782.47	7821.76	6597.45	81.774	5085.88	2602.28	939.466	8599.94	93.059	281.464	91.948	303.138	268.736	271.457	274.163	269.120	8192	-8191	8192	8192	254	
76998.531	1	1	0	0	4579.41	4887.3	4360.56	8.65688	3433.5	1639.4	504.05	4940.04	6776.98	7880.07	6654.22	83.0865	5059.46	2606.79	921.87	8552.46	93.392	281.322	92.271	264.445	268.783	271.766	276.034	268.888	8192	-8191	8192	8192	254	
76998.578	1	1	0	0	4587.02	4805.53	4349.9	8.60777	3501.7	1634.88	506.671	4947.75	6785.4	7844.2	6662.59	95.0192	5106.71	2607.89	929.986	8530.72	92.925	281.266	92.632	334.901	268.965	273.198	275.364	268.313	8192	-8191	8192	8192	254	
76998.633	1	1	0	0	4559.83	4863.46	4318.33	9.75174	3507.14	1612.26	495.87	4887.17	6806.53	7862.39	6610.5	88.2212	5112.21	2609.87	923.005	8544.66	93.592	281.913	92.118	302.655	269.047	271.694	275.748	268.607	8192	-8191	8192	8192	254	
76998.680	1	1	0	0	4537.79	4895.43	4342.26	5.87974	3492.82	1659.69	541.487	4946.23	6777.31	7867.13	6611.27	85.274	5124	2651.83	943.236	8579.18	93.606	281.642	92.637	262.356	268.523	272.447	273.713	268.487	8192	-8191	8192	8192	254	
76998.680	1	1	0	0	4625.56	4829.54	4289.77	5.67004	3545.35	1695.97	521.432	4935.98	6838.12	7833.5	6597.5	87.6058	5095.67	2656.37	933.726	8542.03	92.867	281.775	92.264	341.972	268.982	271.227	277.248	268.158	8192	-8191	8192	8192	254	
76998.727	1	1	0	0	4519.97	4805.4	4346.63	12.7475	3498.85	1632.62	517.534	4909.19	6800.51	7819.09	6666.62	88.4567	5117.39	2641.13	936.692	8573.02	92.948	280.412	92.821	351.149	268.462	273.367	274.047	268.751	8192	-8191	8192	8192	254	
76998.773	1	1	0	0	4641.95	4880.21	4336.05	4.01895	3495.48	1636.21	526.067	4918.02	6821.93	7897.07	6603.92	82.7981	5083.76	2622.84	921.149	8558.18	93.365	281.360	92.455	336.586	268.518	271.609	277.092	268.537	8192	-8191	8192	8192	254	
76998.820	1	1	0	0	4592.37	4828.93	4322.72	9.7721	3516.62	1615.54	520.408	4942.1	6808.58	7842.43	6628.88	86.8365	5133.1	2585.68	924.202	8563.09	92.896	282.713	91.452	244.447	267.929	272.058	274.764	269.845	8192	-8191	8192	8192	254	
76998.891	1	1	0	0	4565.26	4843.81	4302.71	13.5239	3474.48	1648.49	504.786	4968.26	6761.57	7825.98	6624.89	82.1827	5091.13	2614.71	917.832	8618.04	93.453	281.902	92.153	273.042	269.564	272.991	272.921	268.512	8192	-8191	8192	8192	254	
76998.938	1	1	0	0	4616	4850.87	4328.19	4.19426	3486.36	1656.37	508.098	4986.53	6815.93	7855.68	6623.25	90.0192	5109.64	2604.27	924.712	8575.9	92.579	281.706	92.214	325.627	267.707	272.783	275.897	268.629	8192	-8191	8192	8192	254	
76998.992	1	1	1	0	4630.06	4810.2	4321.62	4.64053	3530.72	1638.95	517.32	4865.95	6800.95	7816.19	6621.62	88.524	5111.01	2619.31	930.423	8575.44	93.911	281.810	91.944	227.649	267.817	273.515	276.031	269.423	8192	-8191	8192	8192	254	
76999.039	1	1	0	0	4601.36	4881.59	4431.86	3.71557	3493.66	1621.13	508.423	4899.96	6797.98	7900.91	6710.98	92.1298	5110.68	2631.83	912.803	8570.26	93.359	280.983	92.027	259.667	269.123	271.577	273.376	268.902	8192	-8191	8192	8192	254	
76999.086	1	1	0	0	4529.15	4829.17	4361.2	4.13924	3448.56	1633.58	511.848	4960.86	6762.83	7880.51	6664.66	84.75	5057.25	2637.19	918.173	8544.25	93.191	280.540	92.379	172.145	269.321	271.520	274.452	268.460	8192	-8191	8192	8192	254	
76999.133	1	1	0	0	4530.05	4906.95	4328.79	8.70679	3501.65	1648.41	532.862	4919.39	6762.21	7873.72	6617	87.851	5081.43	2608.81	933.572	8536.29	93.970	281.209	91.998	284.138	269.177	271.854	275.992	268.962	8192	-8191	8192	8192	254	
76999.180	1	1	0	0	4607.62	4839.84	4341.13	6.2728	3416.96	1640.45	519.52	4931.23	6806	7883.05	6657.63	86.1538	5073.35	2623.52	940.899	8538.48	93.098	281.689	91.518	258.680	268.549	272.118	273.446	269.661	8192	-8191	8192	8192	254	
76999.227	1	1	0	0	4664.24	4845.17	4325.88	3.72193	3513.58	1638.08	528.813	4992.45	6863.07	7891.39	6602.67	90.875	5091.17	2631.62	921.625	8617.55	92.487	281.182	91.845	311.137	268.555	271.666	275.421	268.822	8192	-8191	8192	8192	254	
76999.305	1	1	0	0	4589.65	4892.14	4320.55	14.8989	3542.21	1619.77	526.487	4965.68	6773.23	7890.64	6610.94	87.4904	5151.34	2619.67	922.745	8638.29	93.386	280.779	91.820	286.323	268.700	271.250	273.215	268.189	8192	-8191	8192	8192	254	
76999.352	1	1	0	0	4637.67	4864.55	4339.8	0.760669	3482.41	1655.72	510.887	4975.61	6811	7879.01	6635.33	88.101	5070.05	2638.56	924.774	8612.73	93.482	281.702	91.528	288.924	268.288	272.475	275.602	269.079	8192	-8191	8192	8192	254	
76999.398	1	1	0	0	4500.05	4744.99	4264.43	5.94613	3506.79	1633.45	508.058	4902.93	6763.22	7831.55	6615.33	84.5769	5113.46	2619.75	932.168	8554.75	93.096	282.413	92.492	318.903	268.813	270.636	275.861	268.989	8192	-8191	8192	8192	254	
76999.445	1	1	0	0	4624.76	4787.58	4388.48	3.07409	3489.17	1632.14	501.031	4904.61	6843.93	7862.03	6649.96	93.9375	5083.41	2620.08	933.938	8552.98	93.107	281.491	92.167	69.824	268.325	271.999	272.822	268.307	8192	-8191	8192	8192	254	
76999.445	1	1	0	0	4606.6	4844.46	4364.8	5.87689	3517.32	1619.67	514.903	4861.41	6821.34	7868.79	6656.67	90.8798	5089.42	2600.71	925.793	8526.6	93.684	281.507	91.328	335.097	268.572	272.672	276.725	269.622	8192	-8191	8192	8192	254	
76999.492	1	1	0	0	4568.14	4789.84	4460.11	9.36005	3494.18	1648.22	490.975	4982.52	6777.7	7794.38	6704.06	88.1106	5112.03	2630.98	931.375	8558.95	93.707	281.963	92.400	285.379	268.198	272.617	276.565	268.139	8192	-8191	8192	8192	254	
76999.562	1	1	0	0	4624.36	4848.94	4322.49	3.65019	3490.36	1657.56	496.468	4945	6874.61	7852.98	6601.61	85.6298	5067.42	2620.2	918.091	8576.16	93.725	281.895	92.524	271.457	267.215	271.549	274.694	267.875	8192	-8191	8192	8192	254	
76999.609	1	1	0	0	4591.1	4881.02	4281.09	4.56434	3477.1	1654.57	517.23	4981.02	6782.38	7872.42	6593.82	82.9423	5074.41	2642.27	920.822	8608.29	93.473	281.241	91.453	307.201	268.157	271.788	275.277	269.039	8192	-8191	8192	8192	254	
76999.664	1	1	0	0	4576.84	4815.95	4337.97	11.6954	3487.68	1665.06	525.701	4945.49	6779.72	7830.13	6650.25	86.226	5094.25	2627.6	929.75	8531.36	93.147	282.362	91.369	285.246	268.837	271.269	274.540	269.547	8192	-8191	8192	8192	254	
76999.711	1	1	0	0	4620.83	4802.21	4366.82	8.7126	3482.84	1673.34	514.809	4856.86	6821.84	7829.59	6691.15	83.4327	5110.71	2650.74	935.053	8533.15	93.276	281.745	92.218	327.479	268.662	273.632	275.316	267.627	8192	-8191	8192	8192	254	
76999.758	1	1	0	0	4547.88	4847.16	4346.18	7.69372	3467.29	1657.66	526.488	4923.81	6773.47	7857.83	6644.9	88.5288	5072.39	2641.35	954.567	8581.86	93.112	281.838	92.025	305.165	268.544	271.941	275.574	269.249	8192	-8191	8192	8192	254	
76999.805	1	1	0	0	4622.21	4859.82	4372.3	8.86064	3482.37	1666.27	500.726	4952.03	6807.02	7861.2	6669.06	82.5096	5072.07	2628.69	931.346	8570.35	93.120	281.186	91.954	284.363	269.006	271.265	272.954	268.623	8192	-8191	8192	8192	254	
76999.852	1	1	0	0	4553.1	4940.94	4304.3	4.21204	3548.7	1653.97	508.214	4967.16	6757.51	7898.27	6660.78	94.0865	5125.06	2633.23	937.212	8583.36	93.177	281.439	91.965	269.318	268.245	271.712	276.850	269.624	8192	-8191	8192	8192	254	
76999.898	1	1	0	0	4505.48	4773.21	4301	6.15901	3466.7	1700.19	528.385	4902.96	6784.05	7867.66	6607.03	84.4279	5084.93	2644.56	924.562	8562.75	93.417	280.743	91.277	330.554	268.152	272.339	275.330	269.189	8192	-8191	8192	8192	254	
76999.977	1	1	0	0	4654.9	4844.32	4323.54	7.65901	3486.22	1618.74	479.055	4867.94	6867.42	7885.88	6635.11	89.3702	5077.12	2625.71	926.188	8527.12	93.338	281.170	92.567	257.288	268.406	272.350	273.652	269.136	8192	-8191	8192	8192	254	
77000.023	1	1	0	0	4578.37	4826.74	4318.3	3.91838	3479.66	1670.39	527.106	4946.93	6817.26	7875.23	6636.43	86.1635	5075.46	2639	944.361	8574.2	93.231	281.389	91.672	274.295	268.945	271.483	274.948	268.429	8192	-8191	8192	8192	254	
77000.070	1	1	0	0	4580.7	4863.07	4307.83	1.66203	3471.41	1623.68	504.501	4977.96	6812.96	7851.12	6609.05	85.6298	5082.11	2589.09	931.428	8620.07	93.114	281.053	92.104	97.746	268.196	272.291	274.976	268.649	8192	-8191	8192	8192	254	
77000.117	1	1	0	0	4571.11	4799.52	4288.09	7.03748	3465.59	1623.99	508.603	4893.87	6769.6	7841.95	6604.75	90.5529	5104.03	2623.99	931.644	8566.99	94.503	280.992	91.546	294.743	268.772	271.305	275.031	268.894	8192	-8191	8192	8192	254	
77000.164	1	1	0	0	4648.85	4845.05	4347.96	10.5311	3443.99	1585.77	506.102	4962.52	6831.81	7824.75	6655.79	89.7356	5069.11	2619.62	921.721	8585.18	93.172	281.590	91.852	309.779	269.330	271.940	275.810	268.712	8192	-8191	8192	8192	254	
77000.211	1	1	0	0	4680.04	4882.6	4338.61	10.9999	3480.47	1638.44	509.561	4935.6	6867.46	7862.16	6634.19	88.2981	5109.69	2628.63	942.707	8559	93.239	281.355	92.217	273.187	268.577	272.991	274.162	268.546	8192	-8191	8192	8192	254	
77000.211	1	1	0	0	4522.36	4898.09	4367.53	7.18443	3435.56	1639.69	519.819	4967.49	6775.58	7922.99	6652.15	79.4231	5022.3	2648.83	921.5	8578.47	93.450	281.613	91.305	289.890	268.658	272.706	272.798	268.826	8192	-8191	8192	8192	254	
77000.258	1	1	0	0	4607.24	4906.81	4375.07	6.10119	3499.46	1670.82	515.771	4884.69	6828.44	7885.45	6666.49	85.9279	5076.41	2644.56	937.236	8553.91	92.935	281.306	92.225	333.355	268.077	272.089	275.948	268.834	8192	-8191	8192	8192	254	
77000.336	1	1	0	0	4553.86	4761.08	4396.13	8.69671	3507.02	1636.5	485.52	4896.18	6770.9	7817.88	6685.24	87.4712	5103.24	2617.98	922.952	8532.52	93.995	281.410	91.850	245.628	268.935	273.919	275.967	268.967	8192	-8191	8192	8192	254	
77000.383	1	1	0	0	4583.46	4849.05	4374.46	5.53318	3436.34	1648.32	496.606	4856.25	6780.72	7852.75	6647.68	84.6394	5077.42	2638.71	916.332	8504.16	93.636	282.127	92.387	248.970	269.001	271.722	275.654	268.240	8192	-8191	8192	8192	254	
77000.430	1	1	0	0	4598.43	4885.89	4312.99	10.9735	3509.64	1662.72	516.216	4935.73	6806.58	7884.49	6647.06	89.7019	5112.57	2647.15	942.971	8573.6	93.021	281.419	92.172	291.580	269.163	272.368	277.143	268.792	8192	-8191	8192	8192	254	
77000.477	1	1	0	0	4620.4	4875.06	4298.56	9.23416	3491.63	1652.53	500.227	4938.63	6802	7853.46	6630.34	89.8317	5109.82	2625.43	918.418	8529.12	93.478	281.587	91.314	323.150	268.977	271.418	276.007	268.514	8192	-8191	8192	8192	254	
77000.523	1	1	0	0	4602.41	4844.64	4407.43	9.04573	3440.52	1613.09	517.623	4975.63	6835.39	7863.26	6720.06	91.9471	5042.19	2641.9	938.163	8604.13	93.398	282.040	91.435	257.594	268.559	271.502	274.112	268.496	8192	-8191	8192	8192	254	
77000.570	1	1	0	0	4611.23	4803.94	4419.74	9.35918	3477.11	1664.6	495.668	4880.96	6771.6	7849.74	6649.83	87.9952	5084.63	2627.78	913.712	8579.76	93.995	280.614	92.000	327.118	269.087	273.182	274.604	268.206	8192	-8191	8192	8192	254	
77000.617	1	1	0	0	4639.1	4790.49	4279.38	4.14384	3498.98	1669.35	486.594	4928.63	6812.33	7847.16	6579.73	93.1971	5100.9	2623.87	924.389	8572.76	93.876	281.439	92.189	239.536	269.089	272.209	274.520	267.892	8192	-8191	8192	8192	254	
77000.672	1	1	0	0	4615.37	4814.59	4326.81	8.74213	3474.11	1668.26	478.386	4921.51	6767.53	7826.31	6652.52	81.2019	5082.19	2612.99	921.49	8578.16	93.425	281.261	92.322	312.366	268.829	273.912	273.625	268.877	8192	-8191	8192	8192	254	
77000.719	1	1	0	0	4606.22	4896.54	4287.21	8.54887	3474.08	1624.88	506.19	4916.78	6794.68	7858.17	6641.97	87.649	5073.25	2618.61	921.942	8580.06	93.280	281.054	92.065	281.988	269.365	272.138	274.126	268.755	8192	-8191	8192	8192	254	
77000.766	1	1	0	0	4561.62	4879.6	4297.72	7.76887	3586.12	1668.62	514.361	5043.76	6813.1	7904.87	6634.76	91.8173	5155.69	2625.98	928.721	8631.37	92.713	281.257	92.740	256.730	268.185	271.857	275.244	268.655	8192	-8191	8192	8192	254	
77000.836	1	1	0	0	4603.42	4932.32	4297.38	4.80312	3526.47	1634.53	513.542	4894.97	6787.67	7913.48	6587.79	88.2019	5119.32	2623.45	937.356	8562.87	92.905	281.743	91.627	341.732	268.238	271.933	274.275	268.505	8192	-8191	8192	8192	254	
77000.883	1	1	0	0	4667.03	4857.97	4397.64	12.1658	3509.55	1590.36	514.657	4915.64	6855.39	7859.66	6662.12	88.0288	5100.61	2600.95	940.606	8580.69	93.285	281.641	91.638	297.239	267.818	272.316	277.487	268.470	8192	-8191	8192	8192	254	
77000.930	1	1	0	0	4576.3	4818.68	4331.33	7.87558	3459.39	1629.46	488.016	4917.38	6779.78	7881.95	6621.82	91.1442	5083.32	2645.57	927.514	8561.27	93.271	281.814	92.087	307.811	268.322	271.726	273.922	269.001	8192	-8191	8192	8192	254	
77000.984	1	1	0	0	4555.63	4892.17	4389.44	12.3091	3437.06	1624.43	504.544	4912.59	6777.79	7870.71	6657.79	87.5577	5087.13	2619.61	919.933	8577.88	93.848	281.218	91.484	233.396	269.048	271.149	277.432	268.691	8192	-8191	8192	8192	254	
77000.984	1	1	0	0	4620.79	4818.79	4334.41	15.7541	3518.38	1693.26	476.767	4981.13	6813.62	7823.2	6607.38	85.3413	5087.92	2652.12	918.51	8595.56	92.607	281.831	91.253	265.279	268.756	271.407	276.963	268.910	8192	-8191	8192	8192	254	
77001.031	1	1	0	0	4584.35	4897.31	4319.92	5.29394	3459.28	1634.82	520.896	4971.89	6816.48	7867.65	6670.09	84.0192	5054.03	2642.18	937.442	8596.88	93.561	281.781	92.200	305.868	268.357	273.151	273.539	268.701	8192	-8191	8192	8192	254	
77001.102	1	1	0	0	4561.5	4951.84	4324.96	9.13467	3470.94	1650.12	499.349	4902.66	6765.12	7964.01	6664.17	85.7019	5081.35	2617.01	918.111	8562.55	93.935	281.766	91.890	278.635	268.474	273.269	273.289	269.056	8192	-8191	8192	8192	254	
77001.148	1	1	0	0	4630.68	4805.8	4252.56	5.32169	3516.04	1597.12	526.754	4931.15	6830.78	7860.71	6574.91	89.101	5087.68	2582.62	951.567	8628.15	93.202	281.455	91.716	215.876	268.194	271.300	275.981	269.603	8192	-8191	8192	8192	254	
77001.195	1	1	0	0	4657.58	4873.35	4333.83	7.50391	3415.46	1626.26	494.183	4935.84	6839.43	7896.64	6661.45	82.5577	5037.2	2613.28	921.644	8582.03	93.442	280.967	91.986	327.467	268.209	272.457	277.693	269.015	8192	-8191	8192	8192	254	
77001.242	1	1	0	0	4569.92	4909.06	4360.17	6.56812	3541.15	1641.03	484.45	4878.06	6781.01	7861.68	6638.03	87.5962	5094.71	2622.66	920.111	8521.83	93.918	281.262	92.041	270.328	268.593	272.305	276.448	269.072	8192	-8191	8192	8192	254	
77001.297	1	1	0	0	4607.8	4867.01	4318.15	3.44044	3468.22	1608.63	536.502	4889.19	6809.92	7884.91	6631.47	89.024	5068.12	2605	942.962	8577.98	93.348	281.822	92.402	266.160	268.397	273.305	276.395	269.411	8192	-8191	8192	8192	254	
77001.344	1	1	0	0	4584.6	4844.17	4408.69	0.697599	3572.64	1620.22	517.603	4911.57	6812.76	7859.87	6641.36	83.7644	5123.78	2593.82	925.178	8557.58	93.736	281.496	91.673	23.662	268.903	272.109	276.450	269.513	8192	-8191	8192	8192	254	
77001.391	1	1	0	0	4547.15	4809.62	4361.44	3.32841	3489.19	1643.42	525.048	4883.35	6769.93	7828.17	6632.64	89.851	5068.11	2615.09	935.255	8547.52	93.215	281.356	92.079	322.056	268.241	272.737	274.386	268.672	8192	-8191	8192	8192	254	
77001.438	1	1	0	0	4553.73	4881.27	4288.26	6.46954	3519.24	1623.4	510.844	4936.85	6781.23	7874.42	6581.75	89.3029	5116.32	2612.5	931.721	8618.53	93.550	281.727	91.633	317.804	268.075	272.748	275.802	269.175	8192	-8191	8192	8192	254	
77001.508	1	1	0	0	4606.58	4788.93	4364.15	10.5848	3469.88	1605.53	507.426	4919.12	6784.86	7832.27	6654.33	90.0625	5054.95	2611.14	929.788	8533.72	93.805	281.497	92.188	263.005	268.406	271.931	276.538	269.204	8192	-8191	8192	8192	254	
77001.555	1	1	0	0	4616.67	4849.23	4374.68	5.65541	3493.12	1662.99	498.665	4894.41	6835.82	7827.74	6665.28	81.5529	5125.37	2628.81	927.288	8566.39	93.640	281.635	92.171	316.624	268.831	272.218	274.990	267.857	8192	-8191	8192	8192	254	
77001.602	1	1	0	0	4575.02	4812.01	4264.68	7.16797	3488.73	1651.61	474.99	4994.23	6781.61	7825.7	6601.65	83.9567	5079.53	2637.39	915.716	8608.05	92.883	281.195	91.801	281.477	269.397	272.837	275.945	269.485	8192	-8191	8192	8192	254	
77001.648	1	1	0	0	4536.54	4848.28	4287.7	12.6785	3477.79	1625.94	494.324	4979.48	6756.98	7836.67	6622.75	84.0625	5080.76	2616.28	931.067	8608.22	93.193	280.622	92.715	304.733	268.843	273.058	274.341	270.002	8192	-8191	8192	8192	254	
77001.703	1	1	0	0	4614.75	4834.49	4332.58	13.0516	3463.13	1649.96	522.026	4890.58	6808.22	7840.37	6652.25	87.7644	5074.41	2636.6	929.774	8594.86	93.241	281.521	92.536	263.508	267.628	272.241	275.132	268.765	8192	-8191	8192	8192	254	
77001.750	1	1	0	0	4551.1	4921.18	4293.55	6.46949	3475.44	1612.19	494.488	5051.56	6752.35	7869.1	6617.79	87.6154	5087.35	2590.78	940.476	8640.87	93.287	281.291	92.050	297.338	268.685	272.845	273.684	268.641	8192	-8191	8192	8192	254	
77001.750	1	1	0	0	4532.19	4894.61	4350.91	4.82764	3455.03	1662.62	518.272	4952.69	6777.93	7879.12	6663.72	85.8558	5057.74	2661.19	938.846	8616.29	93.416	281.388	91.820	356.480	268.648	271.924	277.473	269.173	8192	-8191	8192	8192	254	
77001.797	1	1	0	0	4614.55	4825.2	4351.78	12.1971	3460.63	1636.99	500.095	4980.12	6822.07	7836.85	6654.59	91.6923	5055.32	2631.94	926.404	8607.75	93.164	281.058	91.873	261.981	268.576	271.563	273.470	268.240	8192	-8191	8192	8192	254	
77001.867	1	1	0	0	4518.7	4873.49	4430.02	8.83251	3518.01	1709.6	501.785	4908.26	6740.27	7844.77	6663.32	89.1346	5123.03	2643.99	930.702	8536.74	93.282	281.732	92.137	313.877	268.563	273.145	274.368	268.762	8192	-8191	8192	8192	254	
77001.914	1	1	0	0	4614.94	4874.21	4331.76	17.6682	3489.95	1642.99	497.173	4914.71	6806.34	7879.16	6614.7	88.5192	5103.73	2633.18	914.75	8551.16	92.919	281.068	91.958	288.744	269.202	271.531	273.150	268.255	8192	-8191	8192	8192	254	
77001.969	1	1	0	0	4622.17	4808.44	4325.56	4.064	3379.99	1659.71	489.303	4983.36	6820.75	7867.61	6610.73	89.0192	5037.63	2627.81	921.721	8602.32	93.753	281.033	92.322	3.714	268.390	271.767	278.048	268.452	8192	-8191	8192	8192	254	
77002.016	1	1	0	0	4578.61	4890.29	4347.09	13.8955	3515.19	1617.59	482.897	4973.69	6773.97	7900.88	6617.12	87.5288	5131.57	2603.15	923.606	8645.02	93.614	281.294	91.864	283.744	268.166	272.441	275.214	268.483	8192	-8191	8192	8192	254	
77002.062	1	1	0	0	4545.77	4873.91	4326.7	7.0017	3461.77	1659.41	517.725	4957.14	6785.71	7912.29	6596.15	86.3606	5058.73	2614.33	928.731	8635.01	92.909	281.696	91.981	223.990	268.681	272.040	274.123	268.962	8192	-8191	8192	8192	254	
77002.109	1	1	0	0	4660.78	4831.63	4382.63	10.9472	3457.11	1624.02	496.467	4974.29	6834.27	7882.89	6652.9	86.0481	5077.3	2615.98	925.827	8572.03	93.684	281.704	91.938	323.691	269.118	271.791	275.059	268.624	8192	-8191	8192	8192	254	
77002.156	1	1	2	0	4596.45	4892.52	4310.97	7.35425	3498.42	1668.54	509.188	4960.1	6776.25	7894	6637.64	83.1442	5084.74	2643.45	915.091	8592.22	93.711	281.328	92.079	272.838	269.243	273.007	274.475	268.628	8192	-8191	8192	8192	254	
77002.203	1	1	0	0	4614.8	4823.28	4345.53	2.52779	3493.81	1681.76	489.7	5041.18	6777.36	7829.9	6624.14	69.5288	5063.92	2621.07	922.62	8588.13	93.686	281.529	91.508	178.560	268.648	271.360	275.358	268.810	8192	-8191	8192	8192	254	
77002.250	1	1	0	0	4649.65	4818.12	4316.8	10.6422	3494.83	1614.46	495.694	4975.08	6819.19	7768.87	6602.34	64.1923	5039.34	2565.98	903.716	8568.06	93.153	281.223	91.872	265.222	269.075	271.950	273.980	268.674	8192	-8191	8192	8192	254	
77002.305	1	1	0	0	4554.23	4863.3	4313.86	4.25396	3444.33	1613.34	497.314	4912.74	6742.47	7812.95	6577.25	58.4904	4996.99	2580.75	899.668	8463.95	93.053	281.211	91.640	282.001	268.303	272.319	275.961	268.956	8192	-8191	8192	8192	254	
77002.375	1	1	0	0	4674.1	4806.13	4314.86	9.98778	3488.47	1631.28	508.907	4811.29	6804.85	7795.19	6606.64	62.0096	5055.51	2579	898.337	8484.95	93.817	281.326	92.187	264.691	268.531	272.440	275.152	269.216	8192	-8191	8192	8192	254	
77002.422	1	1	0	0	4584.73	4860.53	4291.34	3.41217	3463.87	1650.32	498.116	4973.07	6790.31	7803.75	6538.44	58.9567	5000.87	2590.47	893.385	8558.33	93.394	282.305	91.226	279.340	269.565	273.506	273.920	268.572	8192	-8191	8192	8192	254	
77002.469	1	1	0	0	4518.6	4806.79	4350.7	3.0374	3526.09	1616.25	522.898	4916.34	6731.53	7856.02	6630.96	72.1731	5090.84	2605.51	922.207	8575.82	93.294	281.514	92.190	314.842	268.342	273.382	275.162	269.076	8192	-8191	8192	8192	254	
77002.516	1	1	0	0	4562.27	4878.83	4356.09	3.405	3557.48	1631.74	512.878	4910.8	6758.99	7877.13	6657	80.7115	5156.18	2609.94	940.12	8541.39	93.909	280.982	91.845	321.560	268.149	272.319	275.835	268.799	8192	-8191	8192	8192	254	
77002.516	1	1	0	0	4548.44	4801.01	4342.9	11.5208	3567.03	1684.98	493.797	4896.38	6814.59	7844.51	6621.63	108.423	5139.14	2668.9	974.952	8614.82	93.288	281.269	92.460	267.721	268.368	271.679	275.709	269.102	8192	-8191	8192	8192	254	
77002.562	1	1	0	0	4669.27	4818.35	4331.41	7.75864	3498.21	1623.89	513.584	4826.41	6883.73	7924.41	6672.04	176.87	5213.19	2746.48	1069.11	8655.82	92.950	281.913	91.788	297.289	268.797	272.599	274.017	268.775	8192	-8191	8192	8192	254	
77002.609	1	1	0	0	4601.24	4858.74	4312.69	12.4868	3457	1597.92	506.387	4921.88	6908.18	7908.47	6695.38	163.788	5161.51	2680.73	982.712	8641.23	93.206	282.276	92.203	297.514	268.687	270.751	276.745	268.894	8192	-8191	8192	8192	254	
77002.664	1	1	0	0	4652.27	4812.48	4327.44	3.48109	3482.76	1621.67	495.393	4960.53	6926.99	7905.79	6736.54	204.976	5207.37	2710.5	1003.68	8638.12	93.451	281.414	91.056	341.364	268.394	272.561	274.792	268.849	8192	-8191	8192	8192	254	
77002.734	1	1	0	0	4525.32	4883.49	4309.31	7.23428	3470.1	1611.31	526.085	4921.3	6836.43	7910.59	6692.84	145.053	5128	2662.45	985.837	8655.51	92.984	281.588	92.181	230.600	268.210	271.190	274.661	269.536	8192	-8191	8192	8192	254	
77002.781	1	1	0	0	4570.31	4860.6	4299.9	6.34134	3490.27	1633.69	504.726	4838.58	6827.7	7885.1	6663.34	135.399	5146.17	2671.05	967.072	8575.68	92.832	280.699	92.124	242.169	267.881	272.464	275.124	268.993	8192	-8191	8192	8192	254	
77002.828	1	1	0	0	4589.94	4863.59	4385.53	7.7585	3516.71	1605.54	501.472	4935.1	6848.73	7902.99	6710.38	123.755	5147.58	2633.69	968.788	8653.46	93.363	281.676	91.673	203.065	269.079	272.281	275.596	268.763	8192	-8191	8192	8192	254	
77002.875	1	1	0	0	4559.23	4776.37	4322.67	6.05989	3513.57	1571.89	501.984	4961.18	6853.06	7902.53	6669.8	125.986	5137.35	2640.75	976.293	8614.73	93.797	281.523	92.184	287.761	269.810	273.036	276.032	269.484	8192	-8191	8192	8192	254	
77002.922	1	1	0	0	4524.81	4803.54	4352.24	2.3708	3563.02	1648.62	530.21	4962.66	6809.81	7841.78	6690.91	135.014	5190.82	2677.09	991.462	8686.28	93.427	281.481	91.914	211.625	268.336	270.514	274.969	268.704	8192	-8191	8192	8192	254	
77002.977	1	1	0	0	4608.22	4845.83	4330	8.95498	3495.98	1664.12	500.861	4855.42	6891.39	7918.5	6660.74	147.755	5123.66	2703.9	1005.65	8609.62	93.622	281.802	92.761	287.265	269.180	272.111	275.793	268.615	8192	-8191	8192	8192	254	
77003.023	1	1	0	0	4612.89	4836.31	4317.89	13.6857	3491.5	1673.59	488.554	4957.72	6872	7907	6698.83	166.788	5143.5	2727.03	1011.51	8652.46	93.696	281.087	92.079	241.414	268.735	272.326	274.098	268.541	8192	-8191	8192	8192	254	
77003.070	1	1	0	0	4669.56	4758	4348.49	7.30391	3451.31	1652.61	492.086	4861.25	6912.57	7899.53	6734.15	185.697	5144.69	2729.7	1008.45	8634.31	93.607	281.359	91.989	356.034	268.244	271.951	275.672	269.322	8192	-8191	8192	8192	254	
77003.141	1	1	0	0	4579.29	4809.87	4316.7	12.1496	3486.09	1632.07	516.517	4967.81	6913.51	7948.49	6720.57	186.053	5196.58	2735.09	1045.09	8705.75	93.935	281.717	91.655	318.372	267.816	271.155	275.367	268.483	8192	-8191	8192	8192	254	
77003.188	1	1	0	0	4641.5	4865.02	4392.18	9.66993	3470.29	1649.46	501.853	5060.73	6895.21	7976.78	6770.92	202.26	5149.22	2730.35	1039.25	8772.67	93.623	281.640	91.456	272.393	267.943	271.457	274.066	269.079	8192	-8191	8192	8192	254	
77003.234	1	1	0	0	4616.71	4807.45	4359.93	13.7615	3486.33	1593.13	509.151	4995.8	6892.34	7952.2	6777.01	203.745	5229.68	2696.88	1040.08	8692.03	93.650	282.094	92.028	279.123	267.640	272.574	276.920	269.268	8192	-8191	8192	8192	254	
77003.289	1	1	0	0	4643.16	4801.25	4316.98	9.14115	3521.1	1631.44	499.043	4912.28	6934.61	7970.56	6760.33	220.106	5233.43	2763.34	1057.99	8679.11	93.201	281.980	92.374	134.141	268.902	271.877	274.724	268.513	8192	-8191	8192	8192	254	
77003.281	1	1	0	0	4583.92	4800.73	4236.56	8.92277	3483.06	1633.14	487.332	4941.45	6946.79	7967.39	6732.94	245.255	5205.85	2797.85	1084.71	8710.7	92.786	281.522	92.325	293.878	268.713	272.644	273.947	269.021	8192	-8191	8192	8192	254	
77003.336	1	1	0	0	4582.79	4788.19	4275.86	17.1486	3512.54	1631.01	528.358	4879.96	6929.84	8006.55	6836.72	262.341	5285.74	2830.37	1134.18	8823.28	92.624	281.856	91.750	271.097	268.592	271.943	273.245	268.765	8192	-8191	8192	8192	254	
77003.406	1	1	0	0	4553.35	4922.69	4384.33	17.4247	3499.29	1687.96	512.587	4887.34	7009.06	8112.41	6842.19	297.587	5293.84	2877.91	1144.46	8787.54	93.357	281.161	91.119	252.781	268.210	271.451	277.222	268.776	8192	-8191	8192	8192	254	
77003.453	1	1	0	0	4584.97	4820.98	4388.36	18.2189	3485.8	1629.82	480.44	4956.34	7033.96	8073.28	6870.86	304.721	5305.46	2841.91	1125.18	8815.93	93.679	281.567	91.915	268.360	268.456	271.285	271.007	269.482	8192	-8191	8192	8192	254	
77003.500	1	1	0	0	4467.04	4739.72	4350.48	8.29007	3540.99	1648.4	490.451	4921.25	6974.65	8055.36	6852.25	318.51	5338.39	2840.43	1176.88	8840.29	93.293	281.637	91.595	123.382	268.862	273.232	274.585	269.196	8192	-8191	8192	8192	254	
77003.547	1	1	0	0	4633.32	4891.46	4408.35	11.4248	3604.22	1723.69	532.047	5080.63	7096.87	8187.67	6946.86	339.572	5436.11	2964.02	1203.89	9052.5	93.475	281.707	91.838	59.096	268.394	273.503	277.130	269.071	8192	-8191	8192	8192	254	
77003.602	1	1	0	0	4664.53	4945.56	4380.19	16.0618	3619.36	1636.26	526.36	4974.61	7176.1	8291.44	6986.38	359.173	5457.68	2917.96	1226.55	8953.33	93.721	282.084	92.390	276.950	269.160	272.639	274.976	269.178	8192	-8191	8192	8192	254	
77003.648	1	1	0	0	4721.46	4875.39	4434.11	5.73444	3526.03	1588.52	510.766	4938.67	7224.7	8204.93	7029.95	352.62	5392.8	2890.25	1186.88	8808.97	93.337	281.000	91.803	289.674	268.265	272.512	272.824	268.808	8192	-8191	8192	8192	254	
77003.695	1	1	0	0	4477.42	4761.37	4283.03	10.3498	3382.53	1582.4	514.121	4854.97	6923.16	7970.49	6811.41	347.49	5225.07	2853.78	1178.37	8680.72	93.096	282.006	92.171	198.896	269.100	272.680	273.368	269.120	8192	-8191	8192	8192	254	
77003.742	1	1	0	0	4501.56	4785.6	4336.25	21.7293	3512.04	1643.68	517.635	5034.03	6931.32	7993.66	6866.38	364.221	5348.42	2867.51	1186.32	9013	93.303	281.433	91.646	246.381	268.484	272.168	274.129	268.777	8192	-8191	8192	8192	254	
77003.812	1	1	0	0	4815.67	4978.9	4361.1	7.86101	3488.05	1589.97	448.944	4165.62	7347.19	8349.59	6990.83	347.986	5332.49	2805.84	1104.76	7544.2	93.688	281.477	91.919	16.203	268.559	271.351	276.305	267.492	8192	-8191	8192	8192	254	
77003.859	1	1	0	0	3229.28	2733.22	2125.92	2.98941	1138.87	458.113	118.427	1005.45	5051.96	4620.61	3442.52	237.606	1887.94	927.683	405.423	1886.91	92.733	281.893	92.434	294.398	267.239	271.037	276.067	268.101	8192	-8191	8192	8192	254	
77003.906	1	1	0	0	575.949	416.583	395.924	4.24269	278.889	107.412	49.3779	399.6	1014.47	880.442	806.99	186.082	582.889	376.12	247.01	884.25	92.245	281.456	88.555	299.563	263.853	274.423	259.622	264.006	8192	-8191	8192	8192	254	
77003.953	1	1	0	0	237.893	210.509	295.034	4.85798	293.817	146.091	58.1164	481.63	548.322	532.351	645.312	184.553	586.514	406.495	256.808	1008.88	89.459	282.552	93.139	49.449	269.181	277.135	282.270	268.934	8192	-8191	8192	8192	254	
77004.008	1	1	0	0	287.24	275.68	329.061	13.0669	298.736	165.646	52.3313	467.408	602.067	603.49	645.178	176.558	588.168	398.51	261.438	1001.47	95.591	276.822	92.618	167.353	267.984	267.269	256.147	269.305	8192	-8191	8192	8192	254	
77004.055	1	1	0	0	295.91	249.72	313.58	9.72	297.868	169.05	57.8677	538.114	607.288	623.327	670.245	182.764	616.755	423.409	272.769	1069.37	93.843	280.909	90.257	319.652	264.911	276.281	274.034	266.808	8192	-8191	8192	8192	254	
77004.055	1	1	0	0	330.626	280.176	331.478	8.22144	296.416	155.4	71.0013	548.985	652.202	628.707	670.082	175.014	629.029	418.909	275.861	1070.61	96.696	280.993	91.322	351.454	264.898	270.008	269.451	266.743	8192	-8191	8192	8192	254	
77004.102	1	1	0	0	321.523	281.811	327.805	6.63996	308.811	163.577	42.3253	556.539	636.885	638.111	691.274	173.755	627.418	421.183	272.803	1125.19	87.374	282.734	91.294	281.445	269.614	270.651	290.822	268.849	8192	-8191	8192	8192	254	
77004.148	1	1	0	0	344.124	285.44	358.669	10.5055	314.939	186.83	55.7366	554.841	683.774	668.168	712.312	175.337	647.558	443.226	270.486	1102.12	95.180	279.936	89.977	345.522	270.227	276.300	273.941	268.048	8192	-8191	8192	8192	254	
77004.195	1	1	0	0	345.2	293.172	358.583	5.9722	352.534	173.292	56.9536	533.21	683.591	660.702	724.163	174.587	671.678	452.111	272.043	1111.79	93.343	279.130	91.307	358.980	266.735	276.544	276.055	265.940	8192	-8191	8192	8192	254	
77004.266	1	1	0	0	336.91	302.176	347.954	8.78671	306.389	169.543	58.5064	571.062	681.418	682.938	722.63	179.971	658.111	446.562	276.562	1109.51	92.590	283.709	93.192	198.461	266.741	270.337	283.258	267.897	8192	-8191	8192	8192	254	
77004.320	1	1	0	0	343.362	323.723	364.583	4.74851	318.029	182.258	43.3177	554.485	691.928	686.538	712.856	190.755	659.26	450.909	285.663	1119.12	91.753	277.057	89.627	231.151	267.159	269.980	283.808	267.016	8192	-8191	8192	8192	254	
77004.367	1	1	0	65536	329.862	296.666	352.037	5.62018	283.672	121.925	24.7092	214.776	680.312	672.433	717.716	196.562	591.327	378.952	232.798	558.986	93.440	281.053	92.613	252.009	269.990	269.675	271.158	267.697	8192	-8191	8192	8192	254	
77004.414	1	1	0	65536	91.0411	20.0522	19.8997	3.78036	6.77737	77.5232	79.4435	39.1896	286.534	218.365	195.519	163.163	214.779	1471.6	8207.25	32365.8	96.960	292.628	79.355	110.175	78.219	113.415	110.113	81.422	8192	-8191	8192	8192	254	
77004.461	1	1	0	65536	19.3371	108.673	156.21	36.8798	46.4053	110.779	68.6643	155.041	32746.9	30672.9	24991	23084.3	20191.2	19257.8	18705.3	18633.5	273.699	88.269	306.662	7.245	299.138	316.890	192.708	173.314	8192	-8191	8192	8192	254	
77004.508	1	1	0	65536	96.7383	103.024	25.7262	41.0246	59.0136	47.7511	53.1346	100.008	18439	18403.5	18347.6	18401.6	18681.8	19193.4	19560.1	20222.3	321.908	68.836	156.602	320.343	206.249	260.280	240.310	17.391	8192	-8191	8192	8192	254	
77004.555	1	1	0	65536	179.476	50.5537	77.0163	209.151	111.04	209.667	38.0977	12.6846	20698.4	21681.8	22539.4	23974	25914.5	27936.1	30207	32706.6	17.079	30.666	198.793	187.645	38.167	94.777	76.693	254.673	8192	-8191	8192	8192	254	
77004.602	1	1	0	65536	0	0	0	0	0	0	0	0	32767	32767	32767	32767	32767	32767	32767	32767	180.000	180.000	180.000	180.000	180.000	180.000	180.000	180.000	8192	-8191	8192	8192	254	
77004.680	1	1	0	65536	0	0	0	0	0	37.2536	113.684	81.0237	32767	32767	32767	32767	32767	32632.9	30867.9	31217.8	180.000	180.000	180.000	180.000	180.000	181.886	328.176	302.790	8192	-8191	8192	8192	254	
77004.727	1	1	0	65536	152.055	5.3774	81.5799	135.597	138.048	140.348	175.894	106.24	30958.3	30223.3	29654.1	29097.6	28904.4	28517.1	28172.6	27612	205.170	232.964	324.843	239.768	218.558	67.985	128.787	307.447	8192	-8191	8192	8192	254	
77004.773	1	1	0	65536	59.1845	24.6952	37.6854	62.7231	32.1683	124.228	2.42795	0	27545.2	28024.6	29206.1	29399.5	29312.4	30367.1	32760.4	32767	183.020	287.316	334.758	98.891	70.709	220.377	283.275	180.000	8192	-8191	8192	8192	254	
77004.820	1	1	0	65536	45.5719	141.307	64.0925	187.043	40.2729	34.1679	10.8452	21.5901	31597.1	30472.7	24710.7	10247.3	1758.98	1098.54	996.428	960.88	29.169	149.409	295.735	278.660	246.080	160.253	95.431	325.602	8192	-8191	8192	8192	254	
77004.820	1	1	0	0	16.3571	6.39903	19.1963	8.68466	18.4456	30.0923	19.3879	12.3558	945.688	938.207	905.986	920.38	916.582	928.245	956.457	953.024	212.534	102.085	227.936	75.647	165.723	65.264	251.275	319.816	8192	-8191	8192	8192	254	
77004.867	1	1	0	0	28.2097	11.0135	8.50887	31.5565	19.9377	20.7552	16.491	25.8061	952.755	964.12	980.226	967.716	978.452	974.639	1002.76	1031.2	265.505	149.308	231.527	47.222	244.695	183.891	251.168	35.049	8192	-8191	8192	8192	254	
77004.914	1	1	0	0	6.85454	24.8207	10.3549	22.0074	48.8916	66.8374	35.7212	27.9742	1034.36	1036.55	1082.08	1199.78	1681.91	5614.17	6371.49	5555.53	302.443	168.730	234.219	54.767	159.950	131.839	283.780	262.503	8192	-8191	8192	8192	254	
77004.969	1	1	0	0	11.7496	23.9466	7.08259	56.5653	37.6061	61.7389	3.73532	21.052	4791.31	4286.35	3854.84	3411.03	2843.49	2222.37	1530.87	1013.02	346.063	70.808	191.998	68.034	306.532	358.172	289.872	194.587	8192	-8191	8192	8192	254	
77005.039	1	1	0	0	7.34381	16.3125	24.6852	10.9771	20.2236	11.7115	7.55853	5.99714	736.288	619.519	546.255	542.827	529.462	527.673	528.067	531.255	336.062	309.214	301.575	214.874	95.776	213.411	172.061	291.868	8192	-8191	8192	8192	254	
77005.086	1	1	0	0	13.1687	7.53427	2.59803	2.78314	20.902	2.47963	7.13408	15.8863	521.726	517.192	518.558	520.885	519.514	514.562	509.827	504.644	78.177	349.181	45.668	69.747	51.939	145.044	178.425	99.440	8192	-8191	8192	8192	254	
77005.133	1	1	0	0	13.5888	6.49883	15.0699	12.6237	11.8861	2.26334	5.10613	7.23071	513.812	457.481	418.168	411.418	368.976	365.861	311.404	283.072	53.431	74.966	101.087	299.130	278.149	286.466	314.791	142.370	8192	-8191	8192	8192	254	
77005.180	1	1	0	0	6.02523	5.28704	3.48623	12.0522	12.4679	13.326	11.4711	11.2292	249.053	224.899	204.75	187.361	173.149	169.245	164.649	162.514	40.445	194.181	247.548	280.307	66.516	152.325	333.140	256.029	8192	-8191	8192	8192	254	
77005.227	1	1	0	0	4.78066	11.7065	7.21133	11.1139	8.00308	7.50268	8.13943	77.3875	155.808	153.942	151.221	158.409	158.351	165.62	172.413	305.159	325.901	352.423	321.214	107.579	157.539	252.412	291.575	280.348	8192	-8191	8192	8192	254	
77005.281	1	1	0	0	151.882	407.957	716.662	9.53346	829.239	408.996	136.08	1264.22	429.909	925.745	1412.38	439.678	1639.36	1104.26	682.635	2573.51	96.724	285.453	97.493	262.894	275.727	276.855	277.185	274.545	8192	-8191	8192	8192	254	
77005.352	1	1	0	0	1058.14	1079.35	999.664	10.0444	862.453	436.983	144.288	1266.56	1998.8	2221.45	1995.15	482.264	1728.18	1127.16	711.74	2653.96	98.542	286.212	97.155	22.385	273.663	276.248	273.681	274.972	8192	-8191	8192	8192	254	
77005.398	1	1	0	0	1114.49	1176.01	1007.39	11.291	891.042	417.257	135.888	1275.32	2079.75	2298.33	2022.46	454.918	1738.83	1119.38	701.226	2644.65	100.594	287.609	98.129	353.696	274.060	279.681	288.238	272.649	8192	-8191	8192	8192	254	
77005.445	1	1	0	0	1095.38	1179.02	1067.45	4.49439	915.181	446.274	137.555	1298.32	2076.5	2355.34	2040.8	438.644	1738.22	1098.34	645.236	2717.68	98.239	284.858	96.875	292.688	275.371	276.071	279.526	272.902	8192	-8191	8192	8192	254	
77005.492	1	1	0	0	1187.56	1200.77	1108.46	8.82933	917.571	437.474	132.024	1348.04	2128.41	2331.24	2068.27	389.255	1692.03	1057.82	606.327	2694.94	99.834	287.548	99.599	245.500	274.066	278.025	287.116	273.848	8192	-8191	8192	8192	254	
77005.539	1	1	0	0	1196.51	1224.75	1131.19	8.95107	949.48	453.803	139.913	1374.31	2082.29	2321.79	2032.52	354.284	1672.21	1024.67	549.63	2694.55	97.610	287.277	97.800	222.505	273.471	279.806	281.135	273.440	8192	-8191	8192	8192	254	
77005.586	1	1	0	0	1189.2	1267.43	1156.42	4.69134	947.009	462.441	140.834	1377.89	2045.61	2302.03	2010.92	290.428	1624.35	978.447	483.337	2569.83	98.382	287.517	99.245	167.394	273.059	279.211	278.767	275.272	8192	-8191	8192	8192	254	
77005.594	1	1	0	0	1205.87	1242.22	1083.99	2.29954	870.338	420.728	139.313	1315.45	1992.41	2217.56	1874.74	227.851	1501.18	882.062	433.577	2459.62	98.633	286.692	97.223	329.328	272.364	278.095	281.120	272.577	8192	-8191	8192	8192	254	
77005.641	1	1	0	0	1182.49	1133.18	1058.97	6.17407	861.714	418.822	145.972	1250.28	1857.75	2077.91	1768	180.837	1436.09	836.697	384.639	2314.38	100.411	288.346	96.697	277.084	273.184	279.162	281.895	274.763	8192	-8191	8192	8192	254	
77005.688	1	1	0	0	1053.45	1080.57	950.493	11.142	782.76	376.4	117.715	1134.36	1721.05	1853.4	1582.54	145.981	1272.03	742.202	350.394	2123.4	97.972	287.752	97.370	113.701	275.680	276.984	284.243	276.615	8192	-8191	8192	8192	254	
77005.734	1	1	0	0	1006.63	1058.12	898.634	3.03353	763.473	400.695	123.82	1151.18	1600.87	1786.88	1525.09	123.644	1260.27	729.611	317.822	2102.34	98.996	287.526	97.442	173.630	274.450	276.847	280.242	273.609	8192	-8191	8192	8192	254	
77005.805	1	1	0	0	977.991	1047.28	906.119	9.93654	806.213	378.631	114.457	1161.18	1550.83	1755	1496.75	118.399	1259.26	709.894	308.875	2098.94	100.618	288.174	97.051	295.056	272.884	275.241	283.193	273.443	8192	-8191	8192	8192	254	
77005.852	1	1	0	0	961.256	1037.27	884.319	9.46231	798.857	392.667	124.314	1135.21	1519.25	1749.05	1486.48	115.293	1245.08	711.856	313.827	2080.06	99.939	286.516	97.519	293.142	273.404	279.782	279.997	274.918	8192	-8191	8192	8192	254	
77005.898	1	1	0	0	990.414	1010.41	893.146	9.50607	766.73	390.706	119.092	1179.22	1541.73	1729.31	1478.76	110.625	1221.51	692.692	304.558	2092.87	97.962	287.401	97.987	131.732	275.021	278.161	282.390	275.422	8192	-8191	8192	8192	254	
77005.945	1	1	0	0	988.773	987.305	921.206	6.57555	786.487	380.653	116.45	1111.09	1521.85	1720.52	1509	121.236	1227.17	713.716	298.74	2088.27	100.667	288.998	98.422	273.616	275.192	279.342	279.880	273.782	8192	-8191	8192	8192	254	
77006.000	1	1	0	0	920.69	1003.75	943.874	4.48508	815.255	385.901	122	1122.55	1503.17	1736.42	1520.81	123.659	1254.5	700.529	317.111	2079.48	98.638	286.215	96.873	117.145	273.265	274.903	282.902	272.932	8192	-8191	8192	8192	254	
77006.047	1	1	0	0	973.017	1020.71	918.408	0.942371	795.989	388.851	115.767	1135.21	1554.15	1750.05	1501.01	119.933	1254.97	704.856	311.875	2077.92	98.359	289.417	99.021	73.639	272.089	277.038	282.673	274.375	8192	-8191	8192	8192	254	
77006.094	1	1	0	0	943.817	988.143	930.656	2.45507	760.652	391.735	129.441	1130.43	1530.44	1730.4	1512.02	129.361	1229.72	746.375	360.928	2144.06	99.212	287.435	99.609	3.290	273.471	277.404	279.376	274.891	8192	-8191	8192	8192	254	
77006.141	1	1	0	0	948.591	988.36	874.94	9.98661	758.993	363.469	129.819	1169.05	1585.9	1746.66	1512.07	131.654	1236.56	696.183	329.245	2102.77	99.490	286.234	98.888	315.148	272.751	278.824	279.285	273.255	8192	-8191	8192	8192	254	
77006.211	1	1	0	0	980.034	979.083	890.213	3.27738	760.491	368.306	113.224	1147.31	1520.95	1720.14	1482.27	104.019	1207.52	699.37	302.721	2055.12	97.078	287.019	98.467	95.779	274.710	278.550	283.114	274.988	8192	-8191	8192	8192	254	
77006.258	1	1	0	0	949.238	997.851	908.387	4.78297	793.243	385.38	111.544	1144.02	1527.81	1713.54	1458.21	98.4856	1230.12	683.269	291.918	2037.71	100.616	286.358	96.746	241.971	271.991	276.506	283.279	273.798	8192	-8191	8192	8192	254	
77006.312	1	1	0	0	1002.68	1013.65	893.94	2.11887	770.102	400.401	118.139	1159.3	1529.05	1714.53	1466.33	104.774	1206.14	701.957	290.048	2070.68	99.050	288.614	98.120	88.621	275.529	277.526	277.598	274.543	8192	-8191	8192	8192	254	
77006.359	1	1	0	0	945.044	1015.86	892.358	1.11767	753.845	376.655	129.762	1122.71	1519.67	1712.03	1471.09	100.654	1219.21	686.798	298.303	2054.99	99.301	287.345	98.296	349.172	275.346	275.173	278.822	272.664	8192	-8191	8192	8192	254	
77006.359	1	1	0	0	971.025	993.902	934.191	1.66509	761.89	402.929	118.998	1114.66	1515.44	1693.49	1485.68	97.1442	1197.43	694.082	303.562	2060.86	100.609	287.660	97.227	68.809	273.023	276.350	281.932	273.828	8192	-8191	8192	8192	254	
77006.406	1	1	0	0	965.976	973.211	913.504	7.94495	782.865	386.809	114.387	1112.42	1511.32	1683.27	1474.9	105.865	1223.14	696.769	316.553	2040.5	99.821	287.330	98.027	285.966	273.699	277.328	282.507	273.439	8192	-8191	8192	8192	254	
77006.477	1	1	0	0	963.606	1009.78	888.209	4.15311	779.706	385.95	114.348	1113.5	1527.48	1718.84	1485.5	114.784	1228.69	714.76	314.736	2030.16	99.663	288.457	97.617	36.265	274.248	278.092	282.296	275.153	8192	-8191	8192	8192	254	
77006.523	1	1	0	0	989.649	993.21	902.705	3.82126	776.715	374.696	123.726	1115.04	1551.8	1700.92	1491.82	126.212	1226.07	708.712	325.635	2069.41	98.372	288.187	96.820	8.475	273.126	276.252	278.411	274.652	8192	-8191	8192	8192	254	
77006.570	1	1	0	0	995.166	985.103	887.72	14.1419	799.026	384.06	114.261	1165.13	1541.62	1711.95	1491.21	126.663	1247.02	718.312	331.654	2105.96	100.357	288.511	98.213	250.168	275.256	278.105	277.367	272.414	8192	-8191	8192	8192	254	
77006.617	1	1	0	0	985.418	1038.04	891.392	3.96558	772.655	382.022	118.297	1108.56	1539.3	1736.89	1482	129.832	1224.32	737.784	309.433	2076.98	99.325	288.347	97.222	281.643	276.712	277.356	276.229	273.264	8192	-8191	8192	8192	254	
77006.672	1	1	0	0	979.974	980.755	894.465	7.50605	768.772	376.767	104.729	1124.32	1531.49	1716.45	1486.95	132.173	1242.67	694.721	326.649	2060.82	99.754	289.744	98.117	114.634	274.844	278.909	280.035	274.240	8192	-8191	8192	8192	254	
77006.719	1	1	0	0	958.18	956.473	897.874	10.5642	776.732	384.467	104.572	1123.47	1537.45	1713.02	1512.3	126.712	1233.76	713.264	329.611	2073.32	100.341	287.546	98.364	209.788	274.252	280.791	276.518	270.967	8192	-8191	8192	8192	254	
77006.766	1	1	0	0	979.799	990.406	900.071	6.0332	767.472	342.103	122.705	1106.07	1535.15	1706.74	1492.47	127.558	1225.71	695.12	315.75	2067.57	98.584	288.060	96.220	117.307	274.710	276.369	283.432	275.298	8192	-8191	8192	8192	254	
77006.812	1	1	0	0	977.5	1021.67	940.606	4.20875	790.447	388.884	118.794	1118.78	1537.4	1734.31	1508.52	120.308	1235.17	691.827	324.909	2067.13	99.928	287.732	99.648	232.731	274.919	274.042	275.674	273.682	8192	-8191	8192	8192	254	
77006.883	1	1	0	0	924.446	971.835	936.823	3.72193	754.472	358.492	114.112	1124.19	1503.91	1696.14	1518.37	116.856	1203.88	693.88	307.851	2078.63	99.534	287.970	97.813	161.964	272.965	276.415	279.090	273.764	8192	-8191	8192	8192	254	
77006.930	1	1	0	0	986.009	993.278	884.989	11.2893	786.045	382.312	110.694	1091.6	1532.72	1711.93	1492.09	128.808	1230.68	719.716	308.923	2057.54	98.584	287.507	96.549	230.798	274.656	276.061	282.846	274.481	8192	-8191	8192	8192	254	
77006.984	1	1	0	0	959.373	985.941	908.388	10.8368	795.143	374.561	103.061	1150.08	1528.49	1704.12	1507.68	124.351	1250.37	717.255	312.087	2070.69	98.862	286.450	97.083	252.963	272.789	277.297	284.254	273.029	8192	-8191	8192	8192	254	
77007.031	1	1	0	0	960.309	998.199	890.82	2.78355	794.106	372.144	120.657	1101.74	1529.03	1704.68	1483.98	125.952	1223.99	702.88	327.904	2056.12	100.060	288.450	97.314	249.812	275.042	279.592	276.174	272.847	8192	-8191	8192	8192	254	
77007.078	1	1	0	0	973.136	997.656	872.919	2.1294	753.405	391.978	109.833	1102.14	1543.12	1719.43	1476.23	118.322	1212.54	700.452	312.188	2065.91	98.892	289.068	99.405	5.785	274.893	277.844	275.309	274.241	8192	-8191	8192	8192	254	
77007.125	1	1	0	0	984.955	966.92	924.463	5.15117	777.317	394.216	97.7507	1109.56	1531.11	1706.98	1504.87	126.13	1218.15	704.562	306.808	2026.62	98.819	287.020	96.501	328.237	271.823	276.460	289.769	273.375	8192	-8191	8192	8192	254	
77007.125	1	1	0	0	964.811	990.143	912.673	3.89173	778.486	376.411	112.776	1088.78	1523.25	1717.64	1478.76	114.803	1222.47	687.149	288.135	2037.84	98.571	288.007	97.639	53.279	273.372	275.398	280.739	275.084	8192	-8191	8192	8192	254	
77007.172	1	1	0	0	952.124	1003.22	903.119	7.47901	773.708	371.29	108.235	1085.25	1503.88	1696.08	1475.22	112.043	1227.98	696.712	285.99	2025.88	99.925	287.083	98.961	237.485	272.214	277.053	286.936	274.163	8192	-8191	8192	8192	254	
77007.219	1	1	3	0	966.945	995.161	918.449	2.3132	727.77	378.431	118.923	1137.31	1509.43	1686.39	1488.75	106.625	1200.81	693.548	282.606	2027.67	98.750	288.455	97.049	131.539	273.418	278.753	280.044	273.616	8192	-8191	8192	8192	254	
77007.273	1	1	0	0	973.467	997.761	905.347	6.16741	802.971	377.459	122.777	1124.88	1505.75	1674.08	1442.57	65.2163	1182	634.514	250.875	2004	100.264	289.460	96.957	269.227	273.962	275.801	277.745	274.487	8192	-8191	8192	8192	254	
77007.344	1	1	0	0	936.532	953.837	881.463	4.06624	787.672	384.046	123.731	1124.39	1448.65	1628.3	1401.88	50.4231	1161.31	634.236	251.889	1979.76	98.113	287.504	100.359	343.392	275.825	277.745	279.732	273.883	8192	-8191	8192	8192	254	
77007.391	1	1	0	0	950.573	983.05	946.473	3.43595	792.374	370.616	115.718	1127.75	1471.14	1615.29	1445.59	47.2596	1170.26	627.12	243.01	1974.05	97.444	287.315	97.328	300.280	275.015	278.960	281.835	274.257	8192	-8191	8192	8192	254	
77007.438	1	1	0	0	977.803	962.725	921.026	5.97402	801.276	386.398	108.521	1148.44	1472.32	1633.98	1416.3	48.6779	1166.87	630.389	246.082	1997.62	98.676	288.877	97.412	307.549	275.076	278.978	285.329	273.475	8192	-8191	8192	8192	254	
77007.484	1	1	0	0	967.334	980.09	884.135	9.48534	779.609	381.507	124.189	1125.85	1454.36	1636.67	1422.1	52.226	1159.01	639.822	247.058	1985.09	98.294	289.571	98.795	301.330	274.334	278.133	284.625	275.082	8192	-8191	8192	8192	254	
77007.531	1	1	0	0	939.672	986.973	917.315	6.56325	763.79	374.353	124.042	1097.12	1441.99	1644.61	1436.99	54.6731	1140.06	638.409	257.144	1969.15	98.804	287.151	97.252	338.995	274.587	279.528	279.328	274.751	8192	-8191	8192	8192	254	
77007.578	1	1	0	0	996.704	1013.75	892.258	3.51343	768.21	374.403	119.263	1138.11	1459.09	1639.28	1407.89	47.351	1151.83	642.784	241.49	1995.82	98.854	287.635	98.131	220.106	274.520	276.614	280.483	273.547	8192	-8191	8192	8192	254	
77007.633	1	1	0	0	984.705	1017.83	879.281	2.29071	762.714	345.979	127.614	1134.31	1477.55	1656.51	1395.7	54.851	1154.54	626.399	255.245	2022.94	97.364	288.019	97.205	353.444	273.988	279.505	284.360	274.234	8192	-8191	8192	8192	254	
77007.680	1	1	0	0	935.344	999.416	895.909	2.99272	803.265	376.585	114.079	1141.83	1444.59	1665.36	1410.24	51.5721	1171.58	646.476	243.303	2007.46	99.446	287.509	96.605	339.466	273.156	277.513	281.779	275.029	8192	-8191	8192	8192	254	
77007.750	1	1	0	0	954.847	986.035	909.127	4.51626	768.253	379.357	123.263	1095.78	1447.56	1642.11	1431.99	53.2163	1153.51	632.865	246.072	1960.87	98.812	287.875	97.583	304.083	275.481	277.476	286.423	273.701	8192	-8191	8192	8192	254	
77007.797	1	1	0	0	977.447	1013.55	909.782	4.41852	776.443	376.003	117.669	1105.77	1473.99	1666.62	1425.29	53.0433	1153.45	633.202	248.562	1975.8	98.803	285.956	97.099	18.741	271.996	276.719	282.364	275.290	8192	-8191	8192	8192	254	
77007.844	1	1	0	0	932.394	1012.68	919.411	6.11264	801.733	375.024	124.751	1120.46	1454.09	1653.02	1426.31	54.7981	1176.15	637.288	245.317	2011.55	100.358	288.712	98.668	259.963	273.854	278.412	278.815	272.012	8192	-8191	8192	8192	254	
77007.891	1	1	0	0	966.643	982.551	875.508	3.44671	786.333	357.731	117.553	1140.99	1455.36	1630.14	1406.6	48.1635	1166.12	620.413	245.221	2011.37	99.252	287.226	98.796	238.215	274.141	277.341	277.382	274.402	8192	-8191	8192	8192	254	
77007.891	1	1	0	0	981.978	994.701	867.962	1.32473	785.894	366.667	117.283	1122.93	1467.58	1632.64	1387.65	51.4183	1162.89	629.894	241.591	2031.02	99.998	286.801	98.224	150.140	273.459	277.105	277.406	274.495	8192	-8191	8192	8192	254	
77007.938	1	1	0	0	959.759	1029.28	914.911	4.23451	750.683	381.87	115.783	1118.51	1452.15	1658.56	1419.31	53.0721	1154.81	638.712	249.774	1998.37	98.797	288.038	98.985	349.018	272.723	279.929	281.583	273.704	8192	-8191	8192	8192	254	
77007.992	1	1	0	0	954.479	1039.52	904.916	5.48215	781.402	377.1	118.814	1176.87	1453.88	1664.46	1419.38	60.4327	1165.87	637.981	252.683	2014.67	100.151	287.379	95.674	246.275	273.514	279.449	282.324	274.123	8192	-8191	8192	8192	254	
77008.039	1	1	0	0	957.321	997.063	916.417	1.42708	775.848	373.824	120.408	1091.42	1456.57	1639.22	1415.45	52.0337	1165.26	632.062	251.75	1972	100.797	287.347	97.001	252.721	274.935	278.417	282.966	273.482	8192	-8191	8192	8192	254	
77008.109	1	1	0	0	996.587	987.08	878.999	3.39759	771.869	362.469	118.307	1136.53	1487.27	1631.82	1406.89	53.1779	1150.5	638.764	250.918	1992.05	99.445	286.996	99.447	105.549	273.361	275.949	278.593	273.866	8192	-8191	8192	8192	254	
77008.156	1	1	0	0	979.839	987.588	929.71	5.35317	780.656	386.16	118.981	1114.75	1480.24	1629.14	1429.78	51.7788	1164.06	639.245	244.567	1985.46	101.209	288.408	97.748	253.682	273.442	278.628	280.189	273.457	8192	-8191	8192	8192	254	
77008.203	1	1	0	0	938.787	1030.71	884.826	2.85099	776.481	375.266	117.746	1102.17	1447.64	1663.01	1405.57	49.8654	1161.81	637.505	253.683	1984.58	100.745	287.364	96.532	209.559	273.199	277.333	287.746	274.624	8192	-8191	8192	8192	254	
77008.250	1	1	0	0	951.906	1038.93	880.642	4.69577	785.637	378.112	116.591	1106.48	1461.38	1667.47	1413.29	53.3558	1172.25	635.938	247.928	2001.77	98.533	286.230	98.875	187.085	271.878	280.640	274.547	273.066	8192	-8191	8192	8192	254	
77008.305	1	1	0	0	954.094	1019.25	898.284	8.28091	762.997	386.534	110.751	1150.8	1437.49	1663.13	1416.73	57.4856	1133.49	632.077	249.231	2027.52	100.359	288.235	99.661	114.863	274.708	279.702	278.498	276.471	8192	-8191	8192	8192	254	
77008.352	1	1	0	0	992.762	972.806	892.557	5.00088	736.338	340.625	120.167	1130.7	1472.81	1640.74	1414.14	55.1394	1125.97	604.548	250.731	1999.2	100.617	286.708	96.083	298.533	275.175	279.985	279.494	275.371	8192	-8191	8192	8192	254	
77008.422	1	1	0	0	978.629	989.844	899.831	2.49727	773.552	382.217	126.982	1143.96	1476.82	1645.27	1407.08	54.5481	1146.75	631.024	249.962	2016.17	99.873	287.063	98.579	284.408	274.932	276.807	280.996	273.760	8192	-8191	8192	8192	254	
77008.469	1	1	0	0	991.813	1033.77	925.368	3.96301	767.025	380.565	113.862	1101.53	1494.5	1665.34	1438.75	49.2404	1153.99	626.087	251.447	2003.16	100.365	287.591	98.729	258.619	274.224	280.736	285.105	274.313	8192	-8191	8192	8192	254	
77008.516	1	1	0	0	969.713	996.885	875.395	5.2244	765.571	373.234	120.729	1148.54	1467.53	1645.57	1404.17	55.5385	1151.82	632.678	258.635	1986.89	98.641	287.794	97.673	347.132	272.585	277.987	274.991	272.868	8192	-8191	8192	8192	254	
77008.562	1	1	0	0	971.79	1003.3	884.559	2.15765	768.899	371.527	124.238	1107.94	1463.58	1650.28	1400.61	53.7404	1140.33	638.399	246.101	1975.12	99.570	288.122	98.333	294.772	275.535	278.538	279.169	275.350	8192	-8191	8192	8192	254	
77008.609	1	1	0	0	983.59	1022.61	913.672	3.33393	736.792	369.225	136.527	1144.34	1475	1654.52	1423.27	45.0769	1128.69	630.812	260.841	1981.6	99.921	288.552	96.662	229.937	272.881	277.636	278.153	274.520	8192	-8191	8192	8192	254	
77008.664	1	1	0	0	961.647	982.831	928.395	3.17519	748.547	357.179	105.758	1123.73	1470	1630.61	1432.95	53.1394	1138.01	624.673	244.048	2023.85	99.773	287.692	97.888	13.174	273.147	275.998	281.629	275.256	8192	-8191	8192	8192	254	
77008.664	1	1	0	0	962.257	975.74	912.85	1.9696	781.171	395.979	131.307	1157.75	1469	1640.57	1419.16	48.4904	1170.13	639.971	255.135	2034.29	96.998	288.515	97.232	166.884	275.155	277.285	284.913	273.912	8192	-8191	8192	8192	254	
77008.711	1	1	0	0	993.792	975.594	921.9	5.23659	769.279	373.436	111.486	1094.82	1481.39	1613.95	1435.23	54.2212	1145.55	627.25	254.389	1966.89	99.058	290.314	96.836	236.087	273.717	276.790	283.994	273.955	8192	-8191	8192	8192	254	
77008.781	1	1	0	0	1003.35	1010.94	917.305	8.50557	792.598	371.848	118.02	1110.49	1477.66	1661.09	1424.91	53.9615	1166.34	636.019	241.909	1977.53	99.328	288.800	98.795	310.461	272.648	277.117	282.278	273.935	8192	-8191	8192	8192	254	
77008.828	1	1	0	0	975.025	1001.11	897.307	0.645935	790.86	373.93	121.519	1103.51	1464.38	1642.53	1414.27	57.2981	1181.75	641.812	256.5	1985.47	99.056	286.402	97.105	338.382	274.135	276.965	278.651	273.195	8192	-8191	8192	8192	254	
77008.875	1	1	0	0	991.334	980.496	900.782	3.35495	758.466	371.329	119.582	1099.25	1492.88	1631.52	1430.31	59.149	1152.61	643.106	270.952	1990.56	99.545	286.557	98.289	282.404	273.271	281.730	282.081	275.038	8192	-8191	8192	8192	254	
77008.930	1	1	0	0	976.393	985.319	868.798	7.41191	784.888	359.639	115.565	1153.91	1492.35	1654.03	1426.14	77.8221	1187.4	654.793	278.668	2054.5	98.604	287.658	97.441	75.947	273.660	279.035	276.530	274.208	8192	-8191	8192	8192	254	
77008.977	1	1	0	0	956.586	1004.54	916.229	4.30024	784.061	348.365	119.192	1134.08	1485.34	1667.08	1462.11	86.5913	1198	654.361	280.332	2033.12	98.280	288.071	99.081	334.088	274.662	276.028	279.510	273.734	8192	-8191	8192	8192	254	
77009.023	1	1	0	0	927.169	963.528	925.314	9.78056	786.411	373.31	128.383	1123.76	1458.84	1666.76	1442.48	92.4615	1211.41	674.817	282.24	2026.85	98.227	290.201	97.740	66.510	274.658	279.084	281.480	274.553	8192	-8191	8192	8192	254	
77009.070	1	1	0	0	974.908	976.825	947.251	2.96817	769.405	382.385	115.399	1138.99	1506.53	1666.75	1480.35	90.9519	1185.55	683.264	294.38	2023.77	99.109	287.996	97.251	199.724	274.211	276.353	276.271	274.159	8192	-8191	8192	8192	254	
77009.117	1	1	0	0	945.991	990.081	893.603	4.28327	779.018	372.943	113.432	1111.69	1492.01	1685.41	1451.92	99.1058	1194.69	670.76	290.293	2034.18	100.082	286.062	97.950	268.287	273.297	278.785	279.230	272.790	8192	-8191	8192	8192	254	
77009.164	1	1	0	0	981.797	978.036	898.151	4.27168	725.587	370.961	120.312	1124.92	1510.79	1685.98	1443.98	102.034	1183.47	679.466	289.486	2039.07	99.214	287.917	96.855	64.050	275.633	278.211	277.895	274.638	8192	-8191	8192	8192	254	
77009.211	1	1	0	0	958.086	988.078	888.535	5.32366	756.615	354.594	111.507	1101.1	1498.5	1681.5	1449.96	98.4567	1186.12	665.37	286.774	2014.34	100.935	288.736	98.986	208.230	272.254	277.842	280.797	272.971	8192	-8191	8192	8192	254	
77009.281	1	1	0	0	946.354	1010.18	892.598	3.85776	750.253	393	118.756	1162.33	1485.27	1687.45	1462.35	95.3942	1207.18	692.183	291.745	2031.52	99.638	285.924	98.834	243.871	273.552	279.085	272.890	272.467	8192	-8191	8192	8192	254	
77009.336	1	1	0	0	973.097	974.17	917.241	1.93179	779.218	381.78	110.683	1135.62	1502.33	1686.17	1475.23	86.8558	1185.39	676.231	283.942	2020.62	98.700	286.235	95.346	330.163	274.166	277.400	278.612	273.253	8192	-8191	8192	8192	254	
77009.383	1	1	0	0	968.319	985.203	910.407	5.69705	768.109	364.346	119.421	1131.61	1507.93	1700.65	1468.71	96.7067	1194.73	674.303	282.269	2027.12	98.016	287.648	96.542	277.169	273.450	274.052	282.245	274.896	8192	-8191	8192	8192	254	
77009.430	1	1	0	0	960.629	1016.93	890.565	4.8535	763.97	393.082	112.324	1102.53	1490.19	1683.47	1447.6	86.0962	1175.55	663.851	266.216	2018.43	101.839	288.139	98.987	46.263	273.732	279.203	280.577	273.945	8192	-8191	8192	8192	254	
77009.430	1	1	0	0	966.395	987.451	910.979	1.43275	792.995	378.589	114.455	1163.4	1489.46	1658.08	1452.17	68.2452	1186.1	658.88	254.62	2036.04	100.486	288.577	97.977	235.291	273.543	280.625	281.970	272.672	8192	-8191	8192	8192	254	
77009.477	1	1	0	0	935.673	987.126	888.536	7.15796	764.791	369.113	122.002	1154.01	1450.29	1660.12	1426	60.2212	1159.65	644.019	261.543	2003.98	98.541	288.768	97.135	132.188	272.353	277.725	279.906	274.771	8192	-8191	8192	8192	254	
77009.523	1	1	0	0	958.773	1013.64	906.146	4.07974	757.381	373.289	129.818	1161.35	1465.27	1656.49	1434.82	61.1106	1163.6	643.183	259.457	2020.23	98.485	287.305	98.022	192.074	276.415	276.593	275.130	275.300	8192	-8191	8192	8192	254	
77009.570	1	1	0	0	971.551	995.102	898.084	5.76582	792.636	365.534	125.993	1129.92	1476.09	1647.73	1435.25	69.2212	1166.63	643.74	266.534	2000.58	98.986	288.892	96.341	291.213	274.059	278.943	276.520	273.281	8192	-8191	8192	8192	254	
77009.648	1	1	0	0	969.7	1009.81	902.231	7.17097	776.962	363.357	123.731	1121	1473.03	1675.33	1430.41	74.3269	1180.96	663.538	269.159	2005.83	98.978	289.165	95.704	26.499	274.248	275.593	274.812	274.755	8192	-8191	8192	8192	254	
77009.695	1	1	0	0	968.867	1003	903.062	5.28461	793.336	379.205	126.635	1111.35	1494.3	1670.75	1429.46	80.0481	1184.14	659.764	270.918	2019.29	99.615	287.020	95.909	253.760	273.134	279.450	275.621	273.803	8192	-8191	8192	8192	254	
77009.742	1	1	0	0	956.65	1000.12	879.971	1.23762	774.536	377.863	124.354	1114.85	1483.79	1663.36	1444.63	80.2212	1187.35	669.053	294.173	2021.29	99.188	286.292	97.848	323.376	273.030	277.815	286.033	275.340	8192	-8191	8192	8192	254	
77009.789	1	1	0	0	951.351	968.857	908.24	4.83492	771.633	365.612	118.634	1140.6	1475.39	1636.84	1441.85	80.2596	1162.49	664.861	277.87	2029.77	99.730	288.325	96.845	332.214	271.874	277.708	281.820	274.135	8192	-8191	8192	8192	254	
77009.836	1	1	0	0	953.284	968.939	911.206	3.18286	808.389	379.325	115.513	1125.54	1476.47	1664.31	1433.01	75.5	1188.69	663.264	265.192	1998.53	98.543	288.246	98.820	165.455	275.059	280.566	283.630	273.353	8192	-8191	8192	8192	254	
77009.883	1	1	0	0	962.472	964.405	887.951	0.111531	758.269	387.372	118.513	1099.87	1484.81	1631.23	1417.77	64.6971	1169.97	644.784	258.231	1983.98	97.387	288.855	98.491	187.124	273.160	278.808	277.797	273.301	8192	-8191	8192	8192	254	
77009.938	1	1	0	0	928.397	1020.87	895.699	3.05575	771.601	345.917	136.801	1112.57	1469.58	1657.99	1434.28	57.2404	1165.02	635.837	261.933	1981.67	98.822	287.584	97.690	353.330	274.312	277.877	283.595	275.193	8192	-8191	8192	8192	254	
77009.984	1	1	0	0	961.419	986.025	892.581	1.38094	770.92	358.41	119.679	1099.99	1451.12	1632.22	1390.66	46.2067	1156.3	636.476	240.019	1992.48	98.765	287.611	99.278	283.148	274.293	277.996	278.525	273.079	8192	-8191	8192	8192	254	
77010.055	1	1	0	0	959.363	1016.42	874.253	4.58284	784.434	371.681	131.587	1138.9	1451.1	1649.84	1386.78	47.476	1168.83	620.649	239.562	1989.18	99.992	287.953	96.616	73.933	274.601	276.900	282.918	274.504	8192	-8191	8192	8192	254	
77010.102	1	1	0	0	936.976	994.915	904.039	6.60598	783.358	357.043	122.27	1124.95	1428.58	1634.66	1418.07	48.0481	1176.88	620.596	233.779	1981.54	98.162	287.118	97.180	136.429	274.659	280.788	281.871	273.518	8192	-8191	8192	8192	254	
77010.148	1	1	0	0	966.036	991.41	900.134	1.77691	815.127	360.174	121.367	1125.76	1454.42	1657	1405.29	49.9519	1174.52	626.918	246.298	1982.01	100.170	287.943	97.216	209.902	274.015	278.003	282.134	274.901	8192	-8191	8192	8192	254	
77010.195	1	1	0	0	946.346	994.619	896.136	0.943839	781.601	381.05	118.414	1167.42	1437.08	1634.24	1408.4	48.7981	1157.49	626.111	243.404	2019.87	98.693	288.413	97.178	294.864	273.444	279.776	280.395	273.663	8192	-8191	8192	8192	254	
77010.195	1	1	0	0	949.5	988.59	935.326	5.51717	748.45	384.551	117.398	1083.43	1452.76	1635.73	1432.87	51.399	1137	634.462	245.332	1954.26	99.614	287.645	97.690	74.826	275.736	276.222	279.088	276.432	8192	-8191	8192	8192	254	
77010.242	1	1	0	0	961.579	1037.07	915.435	5.5392	769.306	364.477	117.427	1156.68	1451.53	1653.88	1419.54	49.351	1155.07	615.077	245.88	1986.04	99.783	288.945	97.886	5.864	273.856	276.429	278.771	272.292	8192	-8191	8192	8192	254	
77010.320	1	1	0	0	959.434	1014.26	893.807	0.636772	766.675	355.159	116.61	1125.75	1446.68	1654.78	1407.67	47.1538	1161.81	623.399	248.24	1982.2	97.669	288.520	95.821	54.628	275.090	276.953	281.037	274.060	8192	-8191	8192	8192	254	
77010.367	1	1	0	0	971.62	983.97	894.502	1.83513	764.671	379.775	106.94	1156.84	1470.95	1632.88	1422.26	49.4038	1141.94	632.75	237.457	2001.92	99.154	288.238	96.563	353.154	276.509	277.366	277.886	273.966	8192	-8191	8192	8192	254	
77010.414	1	1	0	0	973.783	965.438	920.098	2.05531	771.161	374.695	114.473	1133.05	1454.68	1631.17	1423.87	49.4904	1148.53	639.692	240.115	1986.44	98.953	288.275	98.293	295.984	273.873	280.926	285.450	275.541	8192	-8191	8192	8192	254	
77010.461	1	1	0	0	942.467	974.432	895.099	7.22568	751.806	379.516	116.237	1152.45	1435.68	1626.02	1418.81	49.2837	1137.69	640.601	242.26	2040	98.953	286.760	98.134	331.482	275.228	278.866	275.973	274.525	8192	-8191	8192	8192	254	
77010.508	1	1	0	0	975.255	987.383	884.184	2.80764	772.282	368.581	117.912	1093.35	1455.52	1628.79	1404.12	48.7596	1143.62	635.005	244.25	1973.84	99.614	288.128	96.773	15.676	273.373	277.385	281.623	273.370	8192	-8191	8192	8192	254	
77010.555	1	1	0	0	908.56	976.475	938.802	2.25549	771.921	366.746	108.656	1119.84	1419.58	1632.38	1421.34	47.6875	1133.1	626.476	243.312	1973.56	98.640	288.149	95.511	325.472	274.056	278.964	279.422	271.918	8192	-8191	8192	8192	254	
77010.609	1	1	0	0	949.199	945.051	894.196	6.91714	777.339	391.491	117.129	1130.56	1450.98	1617.36	1410.21	55.5673	1160.62	642.13	253.784	1991.53	99.156	286.820	99.414	83.603	274.940	279.309	284.350	273.591	8192	-8191	8192	8192	254	
77010.656	1	1	0	0	966.104	1005.99	912.821	5.57168	769.983	367.928	114.734	1115.42	1459.89	1648.43	1413.37	49.3413	1140.18	630.817	234.889	1965.75	98.842	287.611	98.514	35.868	275.239	278.672	282.518	273.687	8192	-8191	8192	8192	254	
77010.727	1	1	0	0	977.117	987.948	923.397	6.52652	799.312	376.488	106.502	1104.75	1461.67	1647.24	1427.59	54.4952	1161.39	634.173	239.938	1975.05	99.662	287.897	96.851	226.319	272.633	278.474	277.779	274.242	8192	-8191	8192	8192	254	
77010.773	1	1	0	0	957.689	981.034	887.097	8.53297	780.232	377.723	109.183	1108.21	1450.64	1630.48	1384.88	46.1394	1158.19	636.298	235.457	1965.82	99.362	286.751	97.369	243.114	274.021	276.955	276.558	272.825	8192	-8191	8192	8192	254	
77010.820	1	1	4	0	940.685	948.691	928.515	2.74205	745.672	384.051	118.633	1144.37	1439	1607.5	1422.88	50.8558	1129.74	636.74	245.716	2008	98.692	286.485	98.812	211.116	273.798	274.238	284.478	275.396	8192	-8191	8192	8192	254	
77010.867	1	1	0	0	956.518	992.76	903.643	1.29582	762.274	393.055	123.426	1149.05	1441.77	1634.51	1413.85	48.1683	1161.17	645.731	255.308	2006.08	99.259	286.886	98.826	12.531	273.914	280.370	278.908	274.129	8192	-8191	8192	8192	254	
77010.914	1	1	0	0	963.83	1012.62	909.543	3.41186	777.162	387.725	125.215	1134.47	1457.06	1650.43	1416.55	51.2933	1152.01	645.106	250.697	1987.87	97.895	289.792	98.907	339.877	274.630	279.138	280.685	273.094	8192	-8191	8192	8192	254	
77010.969	1	1	0	0	999.195	976.391	920.601	3.26242	752.82	373.023	122.531	1139.42	1501.15	1620.9	1407.6	50.5865	1127.97	636.269	253.25	2006.8	100.873	288.138	97.791	36.433	273.940	279.132	278.384	273.499	8192	-8191	8192	8192	254	
77010.969	1	1	0	0	941.031	1019.1	901.611	7.23199	778.994	374.768	116.847	1118.99	1435.88	1651.02	1419	56.2308	1156.82	632.538	256.837	1986.88	99.876	286.992	99.015	345.611	275.454	276.150	275.879	274.278	8192	-8191	8192	8192	254	
77011.016	1	1	0	0	951.67	1001.26	902.401	11.6315	790.711	387.936	114.426	1096.95	1467.54	1658.28	1439.58	76.226	1179.65	667.197	266.63	1990.64	100.362	287.710	97.335	268.122	273.533	278.169	276.906	273.828	8192	-8191	8192	8192	254	
77011.062	1	1	0	0	952.061	1006.82	896.261	3.41057	795.865	372.924	103.433	1124.98	1475.46	1687.43	1466.55	88.1779	1206.85	653.5	287.192	2036.59	100.105	286.982	97.042	42.306	272.563	278.954	277.416	273.816	8192	-8191	8192	8192	254	
77011.109	1	1	0	0	947.157	967.502	925.733	10.3695	754.319	356.709	116.89	1182.52	1491.43	1687.86	1470.01	105.558	1210.78	685.159	295.149	2057.8	99.527	289.297	98.285	323.469	274.644	276.904	282.423	273.662	8192	-8191	8192	8192	254	
77011.180	1	1	0	0	970.712	998.27	917.145	9.9599	756.912	366.976	125.049	1144.43	1505.54	1707.54	1467.69	96.9471	1181.13	650.062	283.683	2009.47	98.900	288.416	97.352	353.355	274.442	279.449	281.205	275.805	8192	-8191	8192	8192	254	
77011.227	1	1	0	0	956.061	998.367	912.623	8.33892	764.767	364.804	120.29	1130.09	1501.12	1698.78	1455.91	87.6971	1189.11	658.317	283.971	2017.99	97.649	287.009	97.785	128.075	274.806	279.039	283.448	273.597	8192	-8191	8192	8192	254	
77011.273	1	1	0	0	954.433	1007.35	916.664	4.96384	784.256	357.493	105.134	1114.18	1491.82	1699.66	1469.22	103.736	1205.71	687.904	303.144	2057.97	99.486	285.456	97.911	39.420	272.873	278.901	284.643	273.105	8192	-8191	8192	8192	254	
77011.328	1	1	0	0	956.008	966.677	922.273	3.89495	781.236	359.926	125.41	1112.88	1533.2	1696.38	1487.25	119.995	1214.75	695.702	328.577	2059.08	99.712	288.220	95.489	93.260	274.249	276.996	286.183	273.830	8192	-8191	8192	8192	254	
77011.375	1	1	0	0	970.496	972.605	893.352	6.38383	771.393	363.884	134.421	1135.09	1519.41	1710.73	1477.35	128.433	1232.41	703.495	327.471	2052.11	99.894	287.645	98.425	47.340	274.373	277.655	279.746	274.501	8192	-8191	8192	8192	254	
77011.422	1	1	0	0	969.809	1019.4	904.897	18.1814	741.335	363.969	123.448	1084.31	1540	1726.03	1486.08	131.418	1212.68	709.471	318.399	2058.86	98.377	287.281	98.018	78.830	274.283	278.294	277.934	273.500	8192	-8191	8192	8192	254	
77011.469	1	1	0	0	922.966	1007.13	902.836	6.97465	750.617	369.276	114.87	1129.28	1522.69	1717.13	1499.62	126.827	1211.45	711.361	322.192	2078.7	100.206	287.480	97.925	80.321	271.544	276.561	279.652	274.679	8192	-8191	8192	8192	254	
77011.516	1	1	0	0	935.369	994.656	897.383	6.48442	758.062	361.089	109.178	1112.11	1494.52	1713.39	1498.12	126.582	1210.12	697.529	313.457	2052.73	97.804	287.640	97.455	233.657	273.936	275.135	285.605	271.625	8192	-8191	8192	8192	254	
77011.594	1	1	0	0	989.709	975.942	916.34	2.87887	787.703	386.745	120.37	1127.05	1536.82	1710.94	1500.21	113.308	1227.87	698.5	310.567	2057.58	97.803	288.117	96.352	234.110	272.824	276.266	282.079	271.683	8192	-8191	8192	8192	254	
77011.641	1	1	0	0	980.307	976.879	927.428	4.38339	751.202	355.191	116.796	1120.82	1538.9	1693.34	1472.33	120.76	1203.33	692.99	309.365	2044.64	98.743	289.580	99.967	257.102	274.159	278.064	274.651	274.277	8192	-8191	8192	8192	254	
77011.688	1	1	0	0	963.564	989.352	920.92	0.527524	795.688	384.663	116.23	1135.38	1531.89	1718.64	1510.62	118.221	1255.38	716.793	323.481	2054.69	99.380	287.962	96.612	323.916	275.096	277.611	274.943	275.593	8192	-8191	8192	8192	254	
77011.734	1	1	0	0	960.108	978.165	951.067	2.46303	782.196	360.126	117.369	1131.53	1531.58	1732.18	1508.56	135.707	1262.3	712.688	344.644	2108.14	98.907	287.044	97.107	261.610	273.084	277.272	277.958	274.195	8192	-8191	8192	8192	254	
77011.734	1	1	0	0	958.616	980.446	891.484	6.03017	781.186	400.68	123.642	1116.94	1571.04	1760.56	1509.77	163.952	1293.49	763.726	379.524	2150.86	98.129	287.626	97.275	102.776	274.411	276.820	269.914	274.822	8192	-8191	8192	8192	254	
77011.781	1	1	0	0	993.942	990.147	904.21	0.386042	776.836	392.144	117.395	1119.71	1627.39	1806.06	1578.97	217.635	1357.35	833.639	455.01	2196.67	99.999	287.535	99.075	49.317	274.892	276.458	283.532	272.497	8192	-8191	8192	8192	254	
77011.828	1	1	0	0	972.971	1003.91	898.369	2.34027	773.834	398.007	122.865	1118.51	1678.37	1881.89	1648.8	287.692	1388.5	863.245	470.538	2211.83	100.371	288.478	97.970	86.855	275.339	277.481	282.015	275.243	8192	-8191	8192	8192	254	
77011.875	1	1	0	0	971.583	973.188	908.436	22.1211	801.598	378.407	132.564	1117.96	1668.5	1826.19	1632.65	266.389	1399.11	866.029	461.822	2217.11	98.976	288.593	97.685	212.518	272.914	277.498	278.229	274.490	8192	-8191	8192	8192	254	
77011.953	1	1	0	0	982.896	948.847	922.073	6.86677	754.225	353.26	116.828	1147.25	1711.87	1861.37	1636.32	274.712	1378.62	847.538	464.678	2250.66	99.191	286.611	99.084	89.349	272.888	277.367	284.030	272.535	8192	-8191	8192	8192	254	
77012.000	1	1	0	0	995.462	991.177	907.297	2.53263	782.024	372.65	98.1265	1128.23	1692.92	1866.98	1659.25	285.303	1400.04	865.707	492.779	2233.55	100.519	288.878	98.553	244.590	275.999	279.636	281.706	274.776	8192	-8191	8192	8192	254	
77012.047	1	1	0	0	984.254	1035.07	931.324	3.30218	775.904	409.304	118.719	1184.19	1708.51	1917.54	1685.62	297.519	1409.75	906.793	492.62	2329.87	100.104	288.237	97.790	12.697	273.956	278.945	285.711	274.661	8192	-8191	8192	8192	254	
77012.094	1	1	0	0	1004.26	1025.58	951.474	10.3508	810.279	377.152	114.506	1177.68	1763.21	1947.71	1722.96	304.668	1436.81	887.062	533.077	2323.12	99.891	287.698	97.924	255.341	275.271	275.823	278.118	273.896	8192	-8191	8192	8192	254	
77012.141	1	1	0	0	1021.83	1059.21	932.84	16.3819	800.633	374.754	122.108	1128.59	1782.62	1979.66	1740.84	324.803	1455.66	920.745	509.572	2256.73	99.495	289.591	97.837	353.308	273.060	276.008	277.880	273.601	8192	-8191	8192	8192	254	
77012.188	1	1	0	0	893.736	766.443	535.396	4.17592	117.381	17.9101	9.25545	20.5905	1620.99	1528.47	1057.94	218.688	365.188	219.197	181.529	190.87	100.503	286.777	96.541	35.173	273.276	254.126	280.031	269.117	8192	-8191	8192	8192	254	
77012.258	1	1	0	0	3.08508	15.5495	13.7643	11.2471	5.87323	16.8639	127.726	54.1065	173.317	176.726	178.288	195.351	364.774	1447.43	7302.78	12146.5	286.090	318.621	145.193	78.220	48.662	313.544	128.162	2.114	8192	-8191	8192	8192	254	
77012.312	1	1	0	0	82.7321	96.0262	42.2577	36.3949	104.125	82.0469	125.936	99.2615	13263.7	13020.9	13991.6	14654.8	15308.2	16795.3	17955.2	18773.7	313.742	75.719	226.968	71.663	294.268	147.769	6.775	308.369	8192	-8191	8192	8192	254	
77012.359	1	1	0	0	104.759	46.9683	30.4642	141.913	67.1727	66.4626	22.1756	92.4111	18537.7	18754.2	19965.8	20759.3	19965	19131	18438.7	17711	108.845	278.782	114.703	4.415	222.187	357.360	14.255	126.788	8192	-8191	8192	8192	254	
77012.406	1	1	0	0	63.4578	40.3676	52.2384	90.3362	54.9901	72.237	109.671	175.717	17675.4	17969.8	18142.7	19148.7	21174	21454.1	27291	25975.5	325.893	187.616	63.190	105.198	156.867	180.333	143.745	39.596	8192	-8191	8192	8192	254	
77012.453	1	1	0	65536	137.265	109.11	44.0302	20.7535	19.4084	45.5395	38.3787	40.7361	15925.6	6417.23	2107.6	1263.94	1227.55	1435	2123.11	3569.38	247.546	298.249	318.239	343.995	343.057	57.507	2.279	92.743	8192	-8191	8192	8192	254	
77012.500	1	1	0	65536	98.2741	195.911	86.3288	31.9952	187.232	162.436	72.2789	104.6	7733.33	14682.5	28879.5	32567.3	30969.4	29222.4	25396.5	18617.1	101.336	120.351	166.523	294.524	265.905	312.888	318.846	313.213	8192	-8191	8192	8192	254	
77012.500	1	1	0	0	146.778	11.9703	6.49521	14.5987	16.6777	4.71787	19.1378	14.5159	4050.33	799.817	779.375	789.712	829.404	851.51	850.51	879.005	272.556	278.996	213.562	324.979	32.434	38.418	135.878	153.009	8192	-8191	8192	8192	254	
77012.547	1	1	0	0	8.08377	3.39916	17.5894	30.3731	9.44179	24.4169	12.5277	22.2454	873.24	900.361	897.865	887.812	909.995	942.072	932.361	926.25	188.875	273.187	136.379	268.795	188.807	40.206	319.472	135.026	8192	-8191	8192	8192	254	
77012.602	1	1	0	0	15.9091	26.2949	15.0517	31.3225	11.7739	6.67114	8.17302	16.3874	934.442	928.13	966.702	1008.68	1044.53	1062.83	1115.24	1138.92	226.444	63.680	19.848	23.318	180.826	166.784	322.530	238.406	8192	-8191	8192	8192	254	
77012.648	1	1	0	0	15.362	23.9079	32.3714	32.7122	32.3732	22.6784	24.9464	24.1319	1186.29	1206.61	1249.52	1307.7	1311.72	1328.43	1341.32	1360.41	254.137	11.426	321.743	310.728	21.069	174.916	169.449	267.604	8192	-8191	8192	8192	254	
77012.719	1	1	0	0	19.8904	11.8966	30.1453	16.5828	13.9324	41.807	37.1937	18.0964	1398.87	1420.24	1395.91	1417.92	1421.05	1401.61	1413.52	1407.96	64.787	219.145	20.971	340.650	193.548	162.923	207.354	340.250	8192	-8191	8192	8192	254	
77012.766	1	1	0	0	4.29826	42.8857	15.4643	119.439	82.165	34.1295	98.6636	72.8599	1465.85	1665.4	1695.64	7484.53	10775.4	10816.2	10800	10613.6	297.231	115.894	293.587	131.150	67.056	209.011	68.692	329.282	8192	-8191	8192	8192	254	
77012.812	1	1	0	0	4.09115	33.0204	64.8934	25.7277	39.7832	5.59224	10.4645	27.9174	9778.39	8491.94	6939.7	5399.76	4213.81	3296.53	2689.3	2130.55	244.630	115.299	279.120	4.706	341.861	3.956	248.821	204.025	8192	-8191	8192	8192	254	
77012.859	1	1	0	0	21.1102	9.78413	26.9585	10.315	13.8615	5.07853	6.8364	4.58339	1587.17	1191.77	986.524	813.606	664.668	591.188	563.861	553.558	247.128	213.350	183.612	276.852	329.800	313.395	191.593	166.657	8192	-8191	8192	8192	254	
77012.906	1	1	0	0	24.4007	11.0509	14.9266	7.78035	11.15	2.99808	12.3474	5.95687	547.721	535.63	475.952	439.471	431.077	395.26	390.38	359.731	92.964	175.103	190.819	144.685	131.441	203.430	303.592	13.786	8192	-8191	8192	8192	254	
77012.953	1	1	0	0	12.0808	4.41774	8.23691	15.9233	2.27282	8.38047	6.03001	5.07339	351.481	350.938	328.24	280.755	251.409	220.399	201.341	189.51	308.744	163.334	203.321	112.822	90.171	135.731	14.698	40.792	8192	-8191	8192	8192	254	
77013.008	1	1	0	0	9.89214	10.0292	3.36818	7.02228	3.4926	5.53206	8.18175	5.65532	183.495	176.62	165.226	168.938	155.635	158.12	154.452	147.154	296.248	247.011	119.655	177.131	234.371	357.563	62.481	184.818	8192	-8191	8192	8192	254	
77013.055	1	1	0	0	6.12405	2.78295	8.3347	3.37592	6.97221	7.20143	12.442	27.3234	159.365	146.909	152.413	157.702	152.111	162.524	153.663	204.534	115.959	204.133	12.169	186.006	286.446	211.020	247.607	274.247	8192	-8191	8192	8192	254	
77013.125	1	1	0	0	37.018	70.574	177.175	15.6528	198.317	121.838	32.4379	311.029	226.928	362.692	563.591	358.582	657.298	537.529	425.745	926.909	97.314	296.751	103.437	116.522	279.802	284.297	317.292	281.598	8192	-8191	8192	8192	254	
77013.172	1	1	0	0	250.679	237.185	236.721	10.0545	210.038	105.312	44.1972	314.326	744.894	759.769	737.62	363.683	657.284	538.361	423.067	920.688	101.842	292.973	99.923	268.578	280.348	286.008	267.124	275.772	8192	-8191	8192	8192	254	
77013.219	1	1	0	0	277.818	250.094	225.664	12.2593	220.556	108.303	39.9744	305.948	739.918	789.274	726.798	373.788	667.611	529.971	433.385	907.389	107.364	295.703	101.600	181.266	280.034	280.581	296.627	278.485	8192	-8191	8192	8192	254	
77013.273	1	1	0	0	271.807	277.435	236.961	2.00749	218.384	119.059	41.6336	340.89	751.356	783.764	713.923	371.486	671.846	536.514	408.947	930.385	103.333	290.936	102.455	23.730	274.383	277.928	289.312	281.328	8192	-8191	8192	8192	254	
77013.266	1	1	0	0	286.291	277.217	251.371	12.7864	222.638	111.446	36.6769	322.345	741.779	788.423	727.582	370.707	682.861	512.447	407.75	909.471	109.521	293.305	103.691	42.729	277.134	282.743	304.412	276.757	8192	-8191	8192	8192	254	
77013.320	1	1	0	0	282.306	272.405	242.279	6.71635	215.575	113.292	39.0206	334.085	728.976	775.764	697.442	329.418	628.26	500.284	367.659	880.808	104.407	297.171	104.495	240.644	284.066	286.077	288.132	280.331	8192	-8191	8192	8192	254	
77013.391	1	1	0	0	250.122	280.897	250.623	3.74178	213.516	93.8979	37.2748	321.835	680.692	726.457	652.957	283.88	588.288	434.837	308.106	815.24	106.974	292.907	103.788	224.074	279.069	281.260	261.766	279.736	8192	-8191	8192	8192	254	
77013.438	1	1	0	0	255.239	252.963	233.827	2.48602	201.481	98.1359	35.0714	305.763	623.505	640.096	610.817	220.394	518.5	381.274	266.889	748.861	107.868	292.410	105.556	291.127	274.152	277.687	304.871	280.887	8192	-8191	8192	8192	254	
77013.484	1	1	0	0	257.171	241.03	227.781	6.69309	185.608	102.973	38.5076	300.373	566.077	586.812	519.702	181.188	448.788	313.457	208.668	679.322	105.930	295.102	105.161	191.544	281.004	281.443	298.466	277.335	8192	-8191	8192	8192	254	
77013.531	1	1	0	0	250.699	253.096	237.862	2.22911	199.982	105.016	35.0506	309.364	495.447	532.399	486.192	131.288	411.466	275.582	169.447	630.168	102.685	294.919	99.461	220.684	281.607	289.941	289.837	278.648	8192	-8191	8192	8192	254	
77013.578	1	1	0	0	256.209	239.14	219.323	10.1918	192.618	109.027	34.8634	287.946	474.548	497.933	448.558	107.231	382.481	267.591	160.899	623.014	105.095	293.785	102.971	290.893	279.187	280.721	272.639	281.317	8192	-8191	8192	8192	254	
77013.633	1	1	0	0	224.893	249.979	224.023	4.12058	190.81	104.858	30.0144	289.966	441.457	491.837	436.514	112.962	386.048	265.135	158.942	628.135	105.016	294.098	103.007	190.731	279.200	279.836	291.216	279.811	8192	-8191	8192	8192	254	
77013.680	1	1	0	0	234.832	234.265	209.628	10.0854	198.236	104.144	29.2517	275.132	440.192	482.966	434.014	108.197	394.553	262.394	172.784	618.543	103.994	289.499	100.885	59.874	276.811	280.445	280.275	279.020	8192	-8191	8192	8192	254	
77013.727	1	1	0	0	242.502	253.85	218.814	5.68006	177.377	92.5984	18.7589	277.585	459.75	512.087	441.226	122.639	383.457	262.659	168.096	621.856	103.062	293.042	101.343	192.476	284.054	282.414	297.505	275.558	8192	-8191	8192	8192	254	
77013.797	1	1	0	0	226.646	230.444	216.333	14.4346	182.417	109.463	26.0989	290.435	457.688	486.788	437.962	116.298	390.029	264.611	167.798	618.236	105.857	295.609	105.306	228.620	278.320	289.688	281.052	279.151	8192	-8191	8192	8192	254	
77013.844	1	1	0	0	248.404	233.051	211.369	1.02247	200.248	95.9904	27.1825	305.307	460.755	494.558	441.173	118.168	399.005	267.995	171.514	634.668	104.319	295.841	105.754	270.343	277.550	281.535	282.823	282.173	8192	-8191	8192	8192	254	
77013.891	1	1	0	0	231.947	225.315	216.272	2.50963	183.998	100.701	23.1911	282.604	446.567	484.303	440.236	108.264	381.894	254.236	160.322	613.322	105.861	292.502	102.398	352.855	281.152	278.110	283.957	278.515	8192	-8191	8192	8192	254	
77013.938	1	1	0	0	225.588	233.313	224.214	3.35203	180.561	86.6149	28.2327	311.883	451.601	492.663	439.654	120.188	397.918	267.606	178.947	627.663	105.031	294.897	102.545	312.669	283.381	278.556	284.436	277.054	8192	-8191	8192	8192	254	
77013.992	1	1	0	0	221.62	256.105	220.805	8.63958	195.27	101.163	35.6009	288.219	455.144	507.764	452.688	121.163	408.442	273.587	177.077	633.904	104.998	290.628	104.300	356.597	275.857	287.204	296.286	278.851	8192	-8191	8192	8192	254	
77014.039	1	1	0	0	237.527	221.421	219.227	4.60333	179.39	109.42	20.6522	288.745	477.851	518.346	471.553	149.062	429.692	327.274	220.894	670.889	102.328	291.252	103.651	100.955	283.464	287.753	290.077	277.024	8192	-8191	8192	8192	254	
77014.039	1	1	0	0	228.583	223.193	239.139	3.53916	181.791	101.735	29.2344	273.966	525.659	557.808	530.5	192.721	463.904	334.288	222.317	662.322	103.542	292.710	98.654	177.976	280.338	275.413	312.186	280.901	8192	-8191	8192	8192	254	
77014.086	1	1	0	0	240.581	234.291	209.696	6.18333	185.598	100.603	40.1444	316.961	501.659	528.442	470.538	145.683	410.312	281.476	182.264	653.736	104.419	297.393	106.060	340.788	278.712	288.895	299.281	279.025	8192	-8191	8192	8192	254	
77014.156	1	1	0	0	230.71	214.88	228.204	4.43808	194.651	88.2526	35.8007	280.009	468.423	489.856	456.88	132.87	401.74	272.178	172.909	618.029	103.624	296.465	105.891	207.447	280.576	284.969	288.878	278.909	8192	-8191	8192	8192	254	
77014.203	1	1	0	0	224.018	238.357	203.329	2.90901	167.583	101.485	30.9164	275.933	455.053	493.385	432.812	114.438	383.548	270.216	163.452	623.428	105.969	292.804	104.254	118.473	279.486	288.753	282.774	277.553	8192	-8191	8192	8192	254	
77014.227	1	1	0	0	220.963	224.293	220.295	11.5273	195.634	93.583	25.3079	301.721	448.707	492.365	446.457	116.832	385.692	260.014	162.399	617.462	104.608	297.240	103.760	257.510	281.035	282.082	289.385	281.700	8192	-8191	8192	8192	254	
77014.281	1	1	0	0	239.132	219.951	200.477	3.24067	197.225	95.985	31.0342	298.019	439.236	478.293	431.308	112.293	399.567	266.562	159.26	617.99	107.152	292.847	100.044	343.837	282.169	285.554	280.231	280.348	8192	-8191	8192	8192	254	
77014.352	1	1	0	0	220.939	238.059	214.396	5.75037	192.072	89.6378	37.0643	287.009	443.389	484.87	434.673	113.466	394.913	249.236	168.303	610.221	103.902	291.954	108.331	282.658	277.710	284.504	305.891	278.724	8192	-8191	8192	8192	254	
77014.398	1	1	0	0	229.98	234.678	211.818	2.88277	193.172	99.0831	31.7588	295.469	447.096	479.587	431.048	117.399	380.981	257.495	163.351	613.716	107.350	292.936	103.990	326.192	279.275	281.415	278.899	275.205	8192	-8191	8192	8192	254	
77014.445	1	1	0	0	216.985	242.618	207.161	5.94324	201.942	96.3478	20.5626	294.043	451.971	483.779	436.832	118.615	386.245	264.12	164.428	619.986	102.594	294.173	104.995	243.706	277.471	285.607	296.190	281.341	8192	-8191	8192	8192	254	
77014.492	1	1	0	0	234.26	224.312	205.746	7.47914	190.189	92.6631	39.8336	289.09	451.207	482.591	432.034	119.327	391.596	267.678	174.99	642.894	103.078	288.441	101.627	31.127	284.009	281.886	282.192	277.997	8192	-8191	8192	8192	254	
77014.539	1	1	0	0	245.447	217.664	209.351	1.65225	216.324	97.921	34.3779	277.797	450.793	489.5	451.197	114.26	406.351	270.683	158.957	602.351	103.881	295.864	101.845	55.108	278.266	280.317	288.679	282.149	8192	-8191	8192	8192	254	
77014.586	1	1	0	0	239.755	228.555	198.497	6.02419	178.124	107.265	33.4664	289.541	447.514	470.837	421.264	102.808	376.562	263.13	151.63	607.197	107.250	293.060	102.275	168.363	279.261	285.698	291.153	279.051	8192	-8191	8192	8192	254	
77014.664	1	1	0	0	212.091	231.744	229.996	10.1013	185.838	86.6024	29.7458	308.998	434.774	482.76	433.885	103.558	378.764	241.639	154.269	608.067	104.759	296.473	104.866	336.260	278.992	288.570	267.454	278.095	8192	-8191	8192	8192	254	
77014.711	1	1	0	0	219.354	223.815	217.968	1.88608	180.336	98.4234	29.727	273.824	438.885	469.014	431.76	107.385	378.409	256.918	157.692	598.909	103.072	297.152	100.091	24.957	276.405	283.583	277.411	279.186	8192	-8191	8192	8192	254	
77014.758	1	1	0	0	220.65	216.647	218.772	1.46237	199.267	107.788	37.5889	321.77	437.149	464.423	426.486	102.885	378.125	249.101	150.168	623.413	105.175	299.358	101.748	9.522	277.949	281.141	293.179	280.193	8192	-8191	8192	8192	254	
77014.805	1	1	0	0	221.65	238.942	219.894	5.10273	188.087	87.3876	27.229	298.995	426.817	452.149	411.74	82.1731	351.216	218.264	115.562	568.197	106.757	291.389	103.142	46.241	282.051	277.412	287.839	283.438	8192	-8191	8192	8192	254	
77014.805	1	1	0	0	222.225	231.585	209.337	7.01023	202.723	99.1735	37.6166	296.509	390.365	422.01	366.673	47.0481	320.462	200.26	101.572	548.212	102.203	294.246	102.618	308.720	276.848	273.407	286.769	281.000	8192	-8191	8192	8192	254	
77014.852	1	1	0	0	207.282	235.375	220.888	1.56525	189.111	88.6668	24.2579	289.357	373.784	414.635	367.851	48.4231	317.548	193.505	97.3654	538.154	105.953	289.688	104.219	91.697	276.240	284.915	268.947	280.117	8192	-8191	8192	8192	254	
77014.930	1	1	0	0	249.429	247.802	232.683	1.73376	187.744	84.6568	28.7868	283.655	387.341	424.649	379.481	49.0096	322.635	196.125	99.9087	549.692	103.822	292.914	106.528	332.278	278.549	289.293	277.647	276.683	8192	-8191	8192	8192	254	
77014.977	1	1	0	0	228.098	245.681	209.524	2.89368	207.494	97.5318	28.6282	293.603	390.197	413.288	367.822	47.6779	333.034	196.784	95.4327	541.159	101.974	297.740	100.846	332.470	276.911	280.483	287.314	282.207	8192	-8191	8192	8192	254	
77015.023	1	1	5	0	236.801	230.018	210.546	3.04865	185.224	107.889	35.9264	300.106	383.014	412.481	365.933	46.7356	318.971	206.409	106.149	553.784	104.655	296.061	102.304	296.539	281.933	278.420	281.465	278.539	8192	-8191	8192	8192	254	
77015.070	1	1	0	0	221.914	244.574	204.092	4.99078	196.731	104.713	30.464	293.468	392.284	426.231	368.048	59.9904	341.231	217.88	124.697	587.707	106.317	295.826	104.650	179.153	279.403	280.198	289.093	275.727	8192	-8191	8192	8192	254	
77015.117	1	1	0	0	247.018	233.335	223.026	3.75364	201.16	84.8451	42.0337	272.014	443.139	478	435.865	122.466	407.034	282.841	191.279	622.606	107.338	297.264	102.145	268.155	280.165	283.690	294.637	279.643	8192	-8191	8192	8192	254	
77015.164	1	1	0	0	225.444	212.749	201.935	3.43636	176.543	84.2946	29.2904	298.256	488.279	516.058	481.769	162.192	429.019	312.019	215.476	656.976	105.688	292.002	101.216	77.968	283.079	283.044	277.203	275.914	8192	-8191	8192	8192	254	
77015.211	1	1	0	0	222.483	234.402	211.067	9.40694	185.254	91.6233	34.2155	275.908	492.582	533.663	489.409	159.202	426.933	296.577	186.938	632.062	106.765	294.508	101.992	208.444	277.097	288.920	294.939	280.048	8192	-8191	8192	8192	254	
77015.266	1	1	0	0	237.316	244.871	216.855	1.63379	195.554	82.2187	26.9094	284.852	456.399	489.567	443.486	104.312	384.846	255.135	149.486	596.125	104.412	291.596	97.509	305.339	280.337	288.651	269.566	281.928	8192	-8191	8192	8192	254	
77015.336	1	1	0	0	239.975	232.953	210.95	5.68518	191.718	97.645	22.6224	288.072	431.755	461	421.115	93.6202	367.264	240.13	140.327	572.178	109.054	294.338	102.241	325.024	279.742	288.965	281.861	277.774	8192	-8191	8192	8192	254	
77015.383	1	1	0	0	223.598	228.186	220.22	4.60015	188.841	104.644	21.8254	289.483	427.909	450.423	403.25	77.25	341.817	226.043	120.918	578	104.888	292.828	98.775	175.191	277.064	284.865	300.534	281.114	8192	-8191	8192	8192	254	
77015.430	1	1	0	0	238.865	225.029	203.463	6.85109	195.423	85.5033	35.3318	277.606	411.26	444.091	383.99	67.0144	333.197	201.889	112.88	541.062	104.526	293.044	103.193	197.823	278.740	277.920	286.403	283.929	8192	-8191	8192	8192	254	
77015.477	1	1	0	0	220.114	240.345	220.792	6.49529	177.695	102.575	34.5109	289.113	384.495	424.606	379.558	54.2933	330.543	201.577	100.865	555.457	106.251	292.074	104.084	40.698	278.157	285.979	286.141	282.770	8192	-8191	8192	8192	254	
77015.523	1	1	0	0	219.848	227.757	202.051	1.98623	188.015	98.6407	28.5008	296.746	382.596	414.096	367.774	51.4135	327.688	198.659	100.885	553.697	103.199	292.457	103.780	80.134	280.746	282.656	292.214	281.259	8192	-8191	8192	8192	254	
77015.570	1	1	0	0	230.818	231.386	208.927	2.05543	157.927	92.6903	26.9739	293.08	386.668	429.601	365.351	48.6106	317.5	196.846	102.538	552.188	104.328	292.508	104.278	67.889	281.772	287.265	282.929	276.908	8192	-8191	8192	8192	254	
77015.570	1	1	0	0	226.71	219.26	200.196	6.4541	197.41	99.7158	30.8715	290.654	381.688	418.284	371.808	49.3462	327.606	205.875	101.178	550.837	104.836	289.317	103.908	200.372	279.698	282.776	275.804	280.097	8192	-8191	8192	8192	254	
77015.625	1	1	0	0	240.034	228.948	219.075	3.92075	184.247	95.9152	26.7785	295.252	389.587	423.207	375.144	54.6779	320.5	199.029	108.212	558.918	105.980	291.530	107.224	157.748	280.301	285.461	289.906	279.409	8192	-8191	8192	8192	254	
77015.695	1	1	0	0	223.054	237.789	192.975	1.86419	193.383	95.9796	28.832	292.222	390.519	424.495	370.438	53.1875	326.957	200.976	108.207	547.312	104.175	294.634	101.667	129.372	281.374	283.709	288.180	279.391	8192	-8191	8192	8192	254	
77015.742	1	1	0	0	234.449	232.656	199.806	1.11079	194.249	93.3476	29.8123	292.154	381.385	432.827	359.817	55.5433	336.197	203.091	104.572	547.736	105.885	292.166	104.312	234.235	282.422	275.822	284.439	279.904	8192	-8191	8192	8192	254	
77015.789	1	1	0	0	235.857	246.262	212.925	2.73858	196.693	105.025	25.9351	309.846	390.188	420.024	382.159	51.875	330.995	201.812	99.5625	553.462	105.682	292.596	102.352	52.595	278.682	287.917	280.015	277.423	8192	-8191	8192	8192	254	
77015.836	1	1	0	0	218.324	245.25	196.095	4.82379	186.825	96.5631	37.3322	279.502	378.976	438.649	364.938	52.7163	321.293	204.317	97.9231	545.351	101.457	292.601	102.067	194.735	274.437	291.266	285.825	282.361	8192	-8191	8192	8192	254	
77015.883	1	1	0	0	239.692	239.976	210.792	4.51645	187.234	104.669	24.1579	288.388	380.572	413.577	379.692	51.9087	319.385	205.683	99.9135	556.76	106.259	292.298	99.954	59.764	280.464	284.208	294.602	276.945	8192	-8191	8192	8192	254	
77015.938	1	1	0	0	230.34	223.415	214.344	2.16294	187.12	98.8869	36.848	296.059	386.25	412.082	370.476	55.7067	314.596	204.87	107.5	565.87	102.183	295.424	103.131	180.992	280.352	281.841	285.496	278.654	8192	-8191	8192	8192	254	
77015.984	1	1	0	0	235.285	229.468	224.284	1.23961	182.787	103.752	25.065	303.204	385.543	421.438	383.24	55.9423	318.938	198.361	102.75	564.476	101.849	297.932	100.078	154.334	280.674	279.526	282.948	280.264	8192	-8191	8192	8192	254	
77016.031	1	1	0	0	216.856	227.567	204.626	8.35304	209.368	90.2913	29.2884	291.784	378.774	420.466	362.692	49.9087	326.538	194.365	98.6058	548.841	105.787	296.392	104.131	285.367	277.552	275.644	284.165	279.022	8192	-8191	8192	8192	254	
77016.102	1	1	0	0	237.897	218.526	211.266	2.11112	183.407	101.71	29.8477	281.879	387.673	416.082	375.832	52.1971	324.005	198.923	97.7644	536.923	103.385	291.808	103.623	130.262	281.741	283.416	286.506	278.899	8192	-8191	8192	8192	254	
77016.148	1	1	0	0	229.434	235.99	220.479	3.75412	178.986	89.1462	30.3514	292.173	388.413	431.25	382.12	52.9087	327.673	196.24	100.837	554.644	103.103	293.298	103.638	239.117	282.246	286.097	285.648	280.397	8192	-8191	8192	8192	254	
77016.195	1	1	0	0	217.911	213.861	216.238	2.96221	179.576	94.4524	24.7889	282.523	383.125	412.971	376.697	54.1779	315.832	188.716	96.5144	551.841	107.711	291.096	101.900	190.936	277.861	283.366	299.673	277.642	8192	-8191	8192	8192	254	
77016.242	1	1	0	0	226.182	233.681	217.16	1.44267	201.718	91.2034	26.4488	286.586	380.721	420.577	377.322	53.2212	322.495	200.062	107.062	566.529	104.014	294.780	105.650	307.067	279.870	281.212	296.067	277.225	8192	-8191	8192	8192	254	
77016.297	1	1	0	0	220.67	233.406	204.809	2.49837	193.495	81.667	33.8667	294.119	382.486	426.548	385.048	52.6346	328.601	204.87	116.538	570.764	105.142	290.414	105.602	183.182	278.466	283.735	298.203	278.912	8192	-8191	8192	8192	254	
77016.344	1	1	0	0	239.186	253.47	201.691	3.47759	187.627	99.6109	29.096	300.51	404.558	454.438	387.736	70.9663	341.014	225.567	123.365	577.731	104.841	291.875	106.051	206.828	278.317	281.372	269.572	280.122	8192	-8191	8192	8192	254	
77016.344	1	1	0	0	213.458	221.176	209.63	4.5234	185.103	89.8247	27.8203	298.017	401.928	437.904	392.591	74.1731	347.678	217.62	136.534	578.88	106.255	290.712	97.391	41.479	279.131	280.752	262.980	279.154	8192	-8191	8192	8192	254	
77016.391	1	1	0	0	215.226	223.785	212.38	4.77259	188.153	89.3071	31.0111	266.55	407.88	450.567	402.486	81.2067	354.144	227.976	143.803	567.74	104.344	294.638	102.132	185.042	278.663	284.229	292.074	279.713	8192	-8191	8192	8192	254	
77016.438	1	1	0	0	224.911	223.5	222.42	7.15306	187.668	95.9534	38.5629	297.18	406.577	454.928	417.644	87.9615	358.159	245.183	144.303	597.659	104.151	293.562	107.897	154.768	277.859	283.640	279.087	281.183	8192	-8191	8192	8192	254	
77016.484	1	1	0	0	232.039	239.456	214.608	7.63662	177.443	93.0938	27.6573	292.346	420.284	475.26	406.841	98.1058	347.668	245.255	142.812	600.385	102.335	293.514	100.980	230.410	280.252	283.516	290.557	279.628	8192	-8191	8192	8192	254	
77016.555	1	1	0	0	229.502	248.901	208.447	4.82322	191.465	95.3745	37.2175	284.507	428.601	475.067	414.221	89.3558	375.106	234.433	148.822	592.904	107.118	294.572	104.732	96.087	283.174	280.757	287.023	279.269	8192	-8191	8192	8192	254	
77016.609	1	1	0	0	245.092	235.595	200.517	4.65841	200.482	90.1049	38.0848	308.332	427.303	466.591	403.745	91.0144	370.409	235.216	147.466	598.688	105.805	292.740	104.202	44.648	276.360	285.687	279.444	280.958	8192	-8191	8192	8192	254	
77016.656	1	1	0	0	228.653	224.503	203.861	2.3708	198.251	91.8327	35.1347	284.615	424.154	459.082	410.471	90.2452	353.894	230.24	135.966	589.817	104.580	292.942	106.013	271.688	279.678	284.381	284.159	278.330	8192	-8191	8192	8192	254	
77016.703	1	1	0	0	219.79	228.272	217.703	4.47376	188.158	89.9652	36.3255	287.987	414.957	452.688	406.62	88.3173	372.332	237.168	140.505	605.197	105.374	295.773	106.347	216.300	286.060	283.249	280.128	278.932	8192	-8191	8192	8192	254	
77016.750	1	1	0	0	227.376	228.618	214.218	5.51444	178.456	85.7358	26.3965	300.008	424.639	457.5	406.082	89.4808	358.12	234.712	141.082	579.683	107.637	297.605	102.893	192.075	278.434	279.156	294.026	280.789	8192	-8191	8192	8192	254	
77016.797	1	1	0	0	212.196	239.218	222.031	0.725598	192.105	93.0826	35.2356	290.437	421.668	462.615	422.947	92.1346	370.572	239.308	142.067	592.125	105.751	292.286	102.656	211.367	281.837	271.972	279.420	276.628	8192	-8191	8192	8192	254	
77016.844	1	1	0	0	234.811	233.374	208.512	3.73339	181.654	101.871	30.9257	274.805	433.264	458.889	414.221	88.3125	366.846	250.558	141.548	586.226	103.301	294.124	100.430	20.193	279.570	277.987	283.326	278.307	8192	-8191	8192	8192	254	
77016.891	1	1	0	0	219.696	234.988	202.14	9.49525	196.573	94.632	31.7968	304.01	412.99	462.678	404.365	85.7067	356.096	240.971	143.298	596.692	107.429	294.191	102.725	72.539	282.013	284.876	263.327	277.203	8192	-8191	8192	8192	254	
77016.969	1	1	0	0	228.731	221.831	223.529	7.58078	188.728	106.381	20.6021	288.656	422.591	465.207	420.053	86.0913	361.731	245.192	137.75	595.288	107.106	289.321	103.418	119.238	279.596	288.259	279.754	279.714	8192	-8191	8192	8192	254	
77017.016	1	1	0	0	251.536	233.267	219.341	5.58714	176.229	96.4323	20.8826	292.684	432.625	461.923	415.25	92.4471	362.481	246.798	143.51	588.654	105.038	293.431	107.006	212.003	280.934	290.561	273.588	280.633	8192	-8191	8192	8192	254	
77017.062	1	1	0	0	230.007	238.346	217.258	3.15877	193.314	87.766	42.4472	303.988	417.438	456.24	410.582	93.2163	377.245	250.082	144.486	589.779	105.042	290.883	105.851	293.511	282.464	287.822	297.236	281.573	8192	-8191	8192	8192	254	
77017.109	1	1	0	0	226.748	240.19	215.263	3.28036	195.748	88.278	28.4089	287.677	421.212	457.471	412.543	87.8269	356.534	250.014	134.798	589.534	107.033	292.062	103.876	52.897	287.172	281.634	283.585	279.158	8192	-8191	8192	8192	254	
77017.109	1	1	0	0	217.139	214.051	224.898	5.77021	189.366	95.0929	30.3045	292.482	418.178	455.462	414.928	87.0817	362.529	230.63	136.361	586.582	106.295	296.166	105.671	308.755	279.749	280.054	290.302	280.810	8192	-8191	8192	8192	254	
77017.156	1	1	0	0	224.248	227.947	192.859	5.03978	193.995	81.1313	29.1924	301.723	426.947	461.072	405.519	93.7644	367.798	238.37	139.851	600.726	105.534	289.587	107.104	203.576	280.142	291.223	287.895	279.338	8192	-8191	8192	8192	254	
77017.203	1	1	0	0	214.66	233.655	226.431	10.4256	179.651	85.7052	31.427	268.781	417.899	469.231	422.947	91.1923	364.832	235.678	145.832	589.457	105.445	298.176	104.303	168.620	280.277	283.778	270.873	279.841	8192	-8191	8192	8192	254	
77017.258	1	1	0	0	232.392	219.863	219.386	10.9417	193.989	108.77	33.4605	308.624	437.587	452.341	414.034	96.3029	371.788	253.543	152.418	592.856	103.498	292.773	104.062	201.891	280.831	281.176	282.008	279.741	8192	-8191	8192	8192	254	
77017.328	1	1	0	0	232.844	245.567	231.702	7.13335	194.783	103.831	26.7216	300.802	429.769	480.889	426.966	91.0817	367.096	244.976	141.053	596.385	102.677	294.140	102.259	48.091	281.640	283.642	274.444	279.748	8192	-8191	8192	8192	254	
77017.375	1	1	0	0	230.934	226.08	215.838	2.64261	195.918	100.561	35.5584	296.788	431.822	455.433	412.707	84.0096	357.712	219.163	125.356	571.337	106.103	289.996	102.274	298.004	283.640	278.394	277.715	279.059	8192	-8191	8192	8192	254	
77017.422	1	1	0	0	219.239	230.027	221.944	3.93982	184.868	103.427	24.0312	294.892	395.212	424.745	381.644	53.3894	317.188	201.37	98.9952	532.957	102.365	293.468	101.659	245.509	277.454	286.350	295.953	279.242	8192	-8191	8192	8192	254	
77017.469	1	1	0	0	231.078	228.113	228.317	4.90511	197.872	97.2147	33.361	297.269	381.87	422.986	369	48.6875	322.904	208.264	98.3654	553.793	104.097	294.099	99.507	143.095	279.587	276.503	281.852	280.158	8192	-8191	8192	8192	254	
77017.516	1	1	0	0	232.055	235.887	224.763	4.81991	201.262	99.1017	38.0967	299.873	377.365	418.856	375.798	49.2404	329.245	192.702	101.707	553.764	108.219	293.408	103.606	117.706	281.519	280.085	284.094	277.788	8192	-8191	8192	8192	254	
77017.562	1	1	0	0	246.38	232.008	209.444	11.1216	199.971	93.8268	35.0659	289.854	387.668	421.418	366.784	46.9183	329.952	199.712	98.6106	559	106.612	294.398	102.954	288.888	276.948	281.312	282.316	276.746	8192	-8191	8192	8192	254	
77017.641	1	1	0	0	225.437	226.079	197.582	2.03248	194.992	102.928	31.4815	287.968	374.25	414.091	372.673	46.6346	313.673	191.135	97.0385	554.072	106.246	295.663	100.905	196.521	277.413	287.634	291.478	279.012	8192	-8191	8192	8192	254	
77017.688	1	1	0	0	222.529	229.53	210.212	4.13355	190.014	98.722	26.2301	272.974	372.495	416.663	366.38	49.226	311.466	197.308	99.6442	529.808	101.828	292.981	102.256	285.806	279.004	283.257	275.695	278.826	8192	-8191	8192	8192	254	
77017.734	1	1	0	0	229.809	220.476	208.869	0.836241	197.176	89.5586	39.5008	272.118	377.077	414.135	365.125	43.0144	328.346	188.529	97.0096	533.933	106.956	294.003	103.352	27.597	284.008	281.239	265.494	277.893	8192	-8191	8192	8192	254	
77017.781	1	1	0	0	214.311	208.128	224.669	2.81833	172.104	88.5092	30.3685	282.497	363.572	394.909	373.005	42.0721	311.774	199.678	98.5288	547.615	106.462	295.241	104.254	275.639	278.281	283.028	276.894	282.583	8192	-8191	8192	8192	254	
77017.828	1	1	0	0	230.533	233.527	225.004	3.33831	196.77	98.4984	25.0467	284.842	383.938	412.995	366.365	47.9279	318.365	197.678	96.6923	554.596	104.120	293.149	103.771	160.093	280.462	283.199	292.165	280.578	8192	-8191	8192	8192	254	
77017.875	1	1	0	0	225.298	230.095	221.575	2.11819	201.582	105.745	29.0988	315.324	370.014	426.082	375.572	43.4038	317.298	199.428	88.5721	558.861	105.176	294.494	104.487	192.604	280.326	281.477	278.462	279.345	8192	-8191	8192	8192	254	
77017.875	1	1	0	0	224.324	217.72	211.414	8.17607	199.184	97.9306	28.157	290.356	372.197	400.837	371.779	48.0625	326.538	191.418	96.2885	556.75	106.680	295.916	103.182	5.140	281.304	282.940	282.492	279.996	8192	-8191	8192	8192	254	
77017.930	1	1	0	0	239.569	237.093	228.109	9.0471	190.856	95.9366	29.3647	296.238	382.673	422.654	369.933	52.0048	326.298	192.327	99.9952	547.894	105.999	293.532	101.366	64.709	281.738	287.785	273.910	281.792	8192	-8191	8192	8192	254	
77018.000	1	1	0	0	230.523	229.541	211.233	3.4578	194.516	90.924	23.2833	278.838	377.812	407.938	374.702	44.0817	314.827	196.856	96.3173	541.101	107.635	295.500	104.712	18.839	276.834	279.107	287.440	283.071	8192	-8191	8192	8192	254	
77018.047	1	1	0	0	233.608	251.923	210.433	7.24333	176.544	96.7852	35.6749	277.256	397.837	423.231	373.01	43.3125	320.043	203.457	97.3894	534.611	105.344	292.897	101.210	186.900	281.413	283.730	293.301	277.737	8192	-8191	8192	8192	254	
77018.094	1	1	0	0	214.637	212.491	207.813	7.56701	204.53	91.6612	33.4015	284.831	380.673	413.288	364.274	49.3365	321.356	197.139	96.1538	539.784	100.213	293.027	99.571	230.688	281.038	280.727	288.801	282.240	8192	-8191	8192	8192	254	
77018.141	1	1	0	0	217.983	227.843	216.091	2.16301	203.666	104.683	33.5438	308.105	382.822	419.745	365.548	41.7644	325.702	205.01	97.6779	556.971	102.389	291.023	104.031	104.287	276.033	281.840	291.512	273.642	8192	-8191	8192	8192	254	
77018.188	1	1	0	0	228.227	231.165	216.13	8.1126	190.257	103.383	33.7495	283.582	389.875	413.38	374.644	48.4279	330.01	205.356	98.375	542.058	108.666	291.889	103.186	314.938	277.169	285.896	291.844	280.580	8192	-8191	8192	8192	254	
77018.234	1	1	0	0	235.654	229.153	212.519	4.99669	191.711	95.1487	37.158	279.11	383.673	415.125	369.072	46.2163	321.351	196.538	98.7596	545.707	105.475	297.226	103.639	19.938	278.443	280.270	288.987	280.437	8192	-8191	8192	8192	254	
77018.289	1	1	0	0	219.021	225.696	204.674	2.78606	198.271	93.2832	26.6317	302.53	386.663	410.067	360.851	49.4183	330.707	200.712	96.4423	550.019	105.357	293.996	104.215	179.664	278.104	283.784	289.929	275.842	8192	-8191	8192	8192	254	
77018.336	1	1	0	0	217.238	214.411	198.452	2.51836	189.32	88.5288	30.5167	286.453	379.341	412.351	354.587	48.7885	317.038	199.471	95.4231	553.178	108.242	295.461	101.625	338.046	276.258	282.900	274.939	277.326	8192	-8191	8192	8192	254	
77018.383	1	1	0	0	226.249	213.626	213.594	1.43258	181.652	103.785	33.086	287.434	381.745	414.885	365.962	48.5673	319.457	204.481	101.418	562.457	104.218	293.146	103.886	258.274	276.670	284.579	282.575	279.658	8192	-8191	8192	8192	254	
77018.430	1	1	0	0	216.313	241.316	206.757	8.45404	183.538	91.1558	28.9815	296.8	372.976	423.505	366.529	49.2981	320.625	195.784	103.942	545.192	107.578	291.928	105.864	237.981	281.323	284.548	283.265	279.551	8192	-8191	8192	8192	254	
77018.500	1	1	6	0	227.582	223.917	192.504	3.47264	180.158	99.6104	28.8742	284.83	382.899	417.048	356.01	54.2981	319.918	203.519	105.529	535.192	105.012	295.775	100.885	223.863	279.046	281.590	306.988	278.449	8192	-8191	8192	8192	254	
77018.547	1	1	0	0	240.952	217.129	214.061	14.4237	193.153	96.6018	31.2877	292.77	402.721	416.486	371.298	55.2452	326.279	213.024	112.615	560.043	108.291	295.144	104.055	314.066	281.615	286.112	277.288	278.542	8192	-8191	8192	8192	254	
77018.602	1	1	0	0	223.743	225.989	203.034	0.983755	187.486	91.6072	30.1433	322.044	383.188	435.168	389.995	69.226	347.591	221.481	133.452	604.183	106.571	293.504	104.461	172.927	280.354	279.838	280.142	280.500	8192	-8191	8192	8192	254	
77018.648	1	1	0	0	215.883	239.82	216.951	7.57469	190.25	85.2256	31.6436	305.444	412.774	469.452	415.13	101.702	374.096	252.341	162.909	626.495	103.653	289.695	103.730	120.784	278.233	280.544	289.888	280.029	8192	-8191	8192	8192	254	
77018.648	1	1	0	0	226.149	225.006	204.981	10.45	185.298	82.1998	45.3537	297.679	463.986	472.74	439.341	123.13	408.798	270.529	185.654	621.135	104.400	297.960	100.831	200.383	282.125	278.675	278.988	280.990	8192	-8191	8192	8192	254	
77018.695	1	1	0	0	208.648	247.974	209.005	9.43826	182.893	113.655	34.1104	294.756	451.231	505.389	449.356	134.072	402.514	285.212	190.409	640.087	104.126	295.724	103.907	24.652	274.913	286.114	276.565	279.650	8192	-8191	8192	8192	254	
77018.742	1	1	0	0	227.462	219.164	208.742	6.53422	183.926	83.9494	20.3434	272.997	476.077	505.846	463.457	131.466	409.317	271.476	176.149	608.832	102.587	295.724	108.688	110.468	278.538	273.894	287.994	276.863	8192	-8191	8192	8192	254	
77018.789	1	1	0	0	215.355	216.237	227.925	0.765325	183.57	99.1916	33.8989	279.943	450.62	490.683	449.423	116.567	384.005	259.553	164.971	622.308	103.831	294.732	106.210	139.469	280.466	282.587	271.041	279.825	8192	-8191	8192	8192	254	
77018.859	1	1	0	0	218.71	245.406	220.472	7.43583	186.785	96.2301	32.9356	280.199	445.202	501.163	429.202	115.178	381.096	270.702	170.812	613.957	104.746	291.309	103.223	57.714	280.205	282.381	278.643	280.171	8192	-8191	8192	8192	254	
77018.906	1	1	0	0	237.938	218.354	213.803	3.36226	186.617	111.139	18.1537	292.763	457.639	484.154	438.981	119.312	389.846	280.567	170.543	618.827	104.290	295.066	102.962	275.439	278.513	287.376	257.105	282.346	8192	-8191	8192	8192	254	
77018.961	1	1	0	0	227.634	204.747	219.217	13.4022	197.132	103.394	31.2183	285.934	460.029	480.409	444.688	123.38	397.519	266	172.438	603.683	104.779	295.296	104.381	3.274	279.321	281.674	283.235	283.792	8192	-8191	8192	8192	254	
77019.008	1	1	0	0	231.873	217.047	196.649	9.79222	212.175	89.8628	32.8408	309.899	455.495	490.404	437.462	116.678	401.697	267.115	167.572	630.615	109.606	288.997	100.346	206.683	280.070	284.197	300.658	276.724	8192	-8191	8192	8192	254	
77019.055	1	1	0	0	234.192	221.08	217.716	1.41656	177.926	106.837	34.6696	280.297	452.913	473.909	422.399	114.389	376.822	261.611	167.582	603.976	107.320	293.883	106.301	74.994	281.842	280.270	286.079	283.639	8192	-8191	8192	8192	254	
77019.102	1	1	0	0	225.402	231.131	207.106	5.87375	183.658	89.5695	31.856	301.29	438.875	479.861	422.885	108.803	374.971	249.692	158.005	617.361	103.881	292.618	102.889	325.749	279.491	285.931	286.792	278.988	8192	-8191	8192	8192	254	
77019.172	1	1	0	0	234.905	237.573	205.099	5.0751	190.595	84.9364	25.9818	294.396	439.356	475.149	415.452	110.188	387.486	238.264	165.207	597.356	102.760	295.451	102.635	85.084	280.890	287.205	283.730	280.243	8192	-8191	8192	8192	254	
77019.219	1	1	0	0	237.019	228.999	196.553	1.821	210.064	108.21	35.1469	297.814	438.034	482.957	427.481	106.75	396.957	273.87	165.649	608.918	102.710	291.035	105.870	273.659	279.685	279.879	303.648	276.107	8192	-8191	8192	8192	254	
77019.266	1	1	0	0	223.379	233.579	214.682	4.04239	192.856	98.1184	24.1783	276.145	452.577	487.524	432.558	111.144	386.423	267.769	173.438	619.519	102.898	288.011	102.294	63.671	272.323	283.069	297.173	283.095	8192	-8191	8192	8192	254	
77019.320	1	1	0	0	226.651	217.544	220.742	3.25434	179.122	107.629	28.1814	298.12	452.072	495.183	447.495	129.221	407.375	291.096	193.663	643.284	104.575	291.001	105.772	254.451	278.834	286.329	312.701	277.806	8192	-8191	8192	8192	254	
77019.367	1	1	0	0	223.571	238.551	212.959	3.87831	192.562	99.486	28.7836	291.625	488.779	505.913	475.139	153.197	429.005	310.942	214.019	669.596	105.352	292.081	100.316	311.923	280.082	289.940	289.696	280.105	8192	-8191	8192	8192	254	
77019.414	1	1	0	0	228.669	239.97	216.959	3.52308	197.696	87.6155	28.5719	305.286	510.591	546.952	500.452	172.688	454.788	326.784	224.346	682.226	107.925	293.204	103.043	270.426	283.077	289.501	301.632	274.659	8192	-8191	8192	8192	254	
77019.414	1	1	0	0	223.787	229.062	212.899	7.7124	188.561	102.832	23.8031	271.104	521.447	564.846	503.995	189.053	465.697	351.067	253.212	693.481	106.187	291.623	106.055	249.482	277.013	284.045	286.584	278.977	8192	-8191	8192	8192	254	
77019.461	1	1	0	0	222.966	229.024	197.072	5.30609	191.003	87.6613	34.5411	271.7	538.894	582.74	547.731	245.067	511.438	394.25	298.438	752.341	105.056	294.091	100.085	295.724	280.880	283.157	306.412	281.505	8192	-8191	8192	8192	254	
77019.508	1	1	0	0	227.099	217.479	197.869	3.94061	157.73	75.7074	31.6214	287.821	609.88	647.389	612.817	277.755	553.894	449.375	351.236	813.005	104.057	297.296	106.686	135.393	278.077	293.888	265.134	278.558	8192	-8191	8192	8192	254	
77019.555	1	1	0	0	227.752	222.799	212.804	14.6198	185.343	108.514	37.7722	302.289	640.005	687.202	656.183	328.125	606.433	502.745	386.779	854.981	105.375	298.774	105.981	32.229	279.850	287.354	310.445	277.585	8192	-8191	8192	8192	254	
77019.633	1	1	0	0	223.586	249.447	231.089	22.1685	180.9	82.2451	43.6606	313.071	689.231	721.096	681.428	369.418	645.207	515.716	423.293	872.952	105.577	287.061	103.636	38.406	277.693	280.988	279.776	284.568	8192	-8191	8192	8192	254	
77019.680	1	1	0	0	237.628	217.307	193.591	10.0228	191.089	93.5224	31.8123	315.085	715.606	734.043	685.466	374.995	636.26	528.514	418.077	883.226	102.864	295.578	99.728	188.058	278.947	294.947	289.666	280.695	8192	-8191	8192	8192	254	
77019.727	1	1	0	0	250.219	257.051	212.3	12.6584	186.992	109.728	26.3718	274.119	718.418	748.904	684.038	371.154	642.394	520.99	434.553	879.197	105.726	293.692	99.673	311.919	275.580	287.412	320.720	281.802	8192	-8191	8192	8192	254	
77019.773	1	1	0	0	245.66	245.365	237.572	12.5504	204.811	93.8999	30.9965	289.657	707.659	767.327	708.793	379.697	671.841	528.423	445.885	887.894	104.320	295.350	97.061	165.946	284.473	286.021	285.646	279.127	8192	-8191	8192	8192	254	
77019.820	1	1	0	0	254.255	234.127	251.15	12.1082	187.208	99.0527	27.5935	269.455	741.976	773.74	725.688	403.096	669.274	550.524	445.399	856.418	108.181	296.053	102.475	43.937	280.868	290.063	213.739	279.039	8192	-8191	8192	8192	254	
77019.867	1	1	0	0	207.145	183.581	184.335	2.76824	95.6492	65.4596	8.43563	75.2202	668.293	670.361	579.562	312.659	421.861	326.572	250.755	322.221	106.955	291.523	103.318	157.960	277.124	284.321	7.528	281.221	8192	-8191	8192	8192	254	
77019.945	1	1	0	0	29.4088	17.7507	13.0206	13.9834	9.67137	12.6933	6.35572	4.59476	226.24	198.418	173.115	178.692	171.38	168.01	168.688	164.716	116.531	301.111	115.033	323.484	237.142	9.875	301.602	286.238	8192	-8191	8192	8192	254	
77019.992	1	1	0	0	8.69486	12.3544	7.17154	8.47932	15.3437	16.3801	4.95729	8.28486	164.404	166.154	171.337	217.25	283.264	451.543	754.591	1278.92	202.000	144.439	76.701	99.478	293.612	274.142	157.805	174.367	8192	-8191	8192	8192	254	
77020.039	1	1	0	65536	26.5551	19.9909	62.73	53.0911	69.2748	38.7903	36.8201	34.3701	2162.88	3340.4	4663.05	5434.51	5637.77	5878.91	6085.75	6545.25	111.662	143.743	143.208	167.177	233.895	171.896	61.837	269.318	8192	-8191	8192	8192	254	
77020.086	1	1	0	65536	87.5725	36.1026	101.2	53.9265	148.514	62.2675	32.1642	67.2252	8251.26	11831.2	13166.6	17228.7	20267.8	19798.5	32687.2	24579.1	69.410	223.017	226.983	143.914	142.297	277.871	240.678	333.446	8192	-8191	8192	8192	254	
77020.133	1	1	0	65536	22.0589	217.08	54.593	40.9069	111.572	48.9746	15.1012	202.065	22141.6	28229.1	28374.8	20867.2	19011.2	21477.2	28598.6	30149.8	286.457	135.455	332.234	312.938	256.911	357.022	131.279	112.485	8192	-8191	8192	8192	254	
77020.180	1	1	0	65536	24.5568	0	0	87.1987	68.6426	81.4374	110.806	119.058	32735.9	32767	32767	29848.6	25830.6	22658.1	18249.3	14982.2	326.285	180.000	180.000	223.112	222.906	7.337	284.085	199.680	8192	-8191	8192	8192	254	
77020.180	1	1	0	65536	45.7323	24.3072	40.1842	11.12	35.2057	27.8158	116.02	59.9243	13842.1	13657	13700.6	14033.8	14734.6	16812.4	22425.5	31406.1	112.422	102.581	359.954	154.263	201.585	15.407	99.897	147.305	8192	-8191	8192	8192	254	
77020.234	1	1	0	65536	169.7	76.8215	165.574	36.3512	52.074	135.325	38.4639	62.8529	23171.1	12356.3	17419	20978.5	20658.3	17754.4	18448.5	17980.8	327.322	309.450	85.826	352.314	291.654	209.758	325.098	180.211	8192	-8191	8192	8192	254	
77020.281	1	1	0	0	68.2282	144.535	39.8123	43.9338	72.4376	18.2732	33.5613	12.4091	17991.8	20450.4	17970.9	11107	7501.5	5390.57	2682.89	1237.05	332.891	86.513	319.349	230.764	308.584	290.039	293.459	30.895	8192	-8191	8192	8192	254	
77020.328	1	1	0	0	13.1613	15.3143	14.8223	20.0841	10.9398	20.7635	16.0046	43.5045	1174.08	1215.77	1266.67	1367.82	1388.35	1409.51	1454.21	1462.04	178.981	183.844	67.790	54.167	272.227	151.506	185.306	80.283	8192	-8191	8192	8192	254	
77020.398	1	1	0	0	21.136	73.2154	38.4685	33.5715	65.7629	44.4479	59.2848	22.912	1529.45	4961.18	6656.74	6601.71	6563.96	6539.15	6478.74	6643.95	216.470	113.631	122.904	44.510	275.796	135.081	29.499	242.975	8192	-8191	8192	8192	254	
77020.445	1	1	0	0	26.1043	9.21133	38.5217	12.3792	19.2645	49.9403	47.9072	8.24744	6615.07	6686.91	6738.73	6886	7001.34	4291.47	2092.35	1016.12	132.935	113.488	351.379	130.662	125.586	288.084	299.695	86.404	8192	-8191	8192	8192	254	
77020.492	1	1	0	0	9.0702	6.8991	12.8836	12.7849	6.13194	16.3782	8.56378	7.99959	704.077	549.812	458.913	399.293	346.769	308.611	272.755	254.731	29.732	254.742	74.205	357.129	243.070	206.386	355.388	1.375	8192	-8191	8192	8192	254	
77020.539	1	1	0	0	7.55852	6.95622	9.90991	11.8501	12.0651	10.008	11.6252	6.6833	246.466	236.812	236.163	233.832	226.861	234.99	230.332	215.596	316.811	261.011	166.399	268.907	57.414	68.277	236.020	337.675	8192	-8191	8192	8192	254	
77020.594	1	1	0	0	5.9623	7.85587	5.75759	6.29331	6.23606	5.70282	7.09466	5.17997	225.933	220.663	221.673	213.538	215.606	201.933	193.457	194.75	293.150	286.900	107.085	78.290	132.507	356.258	354.289	72.740	8192	-8191	8192	8192	254	
77020.641	1	1	0	0	5.96486	4.70191	1.81036	15.6717	7.55018	7.0939	8.2001	8.2307	194.856	168.587	174.923	175.841	158.519	160.591	158.139	164.832	60.885	20.835	325.643	260.738	343.555	156.022	148.563	296.973	8192	-8191	8192	8192	254	
77020.688	1	1	0	0	7.62975	12.0859	11.1758	6.43207	0.446049	7.63017	8.97342	18.662	154.404	158.231	159.764	161.947	168.173	167.159	172.014	209.827	95.909	270.395	84.536	323.204	114.835	287.533	238.682	264.615	8192	-8191	8192	8192	254	
77020.734	1	1	0	0	21.985	16.2029	54.1937	10.5271	67.6649	36.8302	22.3679	83.2565	252.712	328.51	426.918	378.966	461.014	438.957	406.505	537.495	145.420	321.065	105.381	79.856	289.429	290.211	235.773	291.968	8192	-8191	8192	8192	254	
77020.805	1	1	0	0	57.0978	72.452	63.3633	13.4835	52.6236	38.5586	3.17771	98.4974	478.173	482.413	477.394	391.63	472.899	432.865	413.144	533.308	106.694	301.286	129.620	289.305	275.029	295.936	16.029	285.917	8192	-8191	8192	8192	254	
77020.852	1	1	0	0	74.5509	77.5217	57.8245	4.04869	61.5907	27.1593	19.1643	95.9666	480.447	489.168	465.889	381.115	464.236	436.846	403.202	559.808	99.311	302.591	101.595	224.681	291.285	279.018	287.660	289.216	8192	-8191	8192	8192	254	
77020.898	1	1	0	0	44.4569	66.9491	47.0742	7.01602	61.2286	36.716	18.6649	94.0032	475.837	485.019	463.038	372.861	460.038	429.048	382.385	544.668	115.812	298.312	96.129	239.350	283.835	287.789	257.552	282.771	8192	-8191	8192	8192	254	
77020.945	1	1	0	0	70.5342	70.4319	39.3245	10.3429	47.6312	37.0593	13.1409	82.2855	473.053	475.087	448.702	350.293	439.63	389.981	355.024	486.62	102.997	302.113	98.171	199.375	266.367	259.790	292.927	287.733	8192	-8191	8192	8192	254	
77020.953	1	1	0	0	72.4236	87.867	57.4403	10.6907	55.3318	30.7224	11.9757	96.1333	435.808	418.87	410.144	312.899	375.668	339.779	295.399	438.385	103.440	306.925	103.553	141.395	296.861	285.792	323.767	283.570	8192	-8191	8192	8192	254	
77021.000	1	1	0	0	52.4797	71.5231	57.3208	6.70509	52.4277	31.7351	29.7153	89.3408	353.721	381.279	348.832	241.471	314.058	272.976	240.149	374.976	103.564	312.777	101.472	74.398	295.667	269.374	312.869	282.891	8192	-8191	8192	8192	254	
77021.047	1	1	0	0	74.3135	67.9613	76.7886	8.66029	53.3461	36.8208	23.2503	73.0511	299.851	311.38	293.327	196.606	268.697	235.202	190.438	310.846	115.298	306.254	111.413	127.923	281.232	290.443	320.322	284.591	8192	-8191	8192	8192	254	
77021.094	1	1	0	0	58.4543	59.9819	45.1006	6.28041	50.3872	41.7002	7.93465	91.7425	255.808	265.26	239.861	150.274	222.865	185.226	151.755	273.221	110.815	299.436	112.170	185.218	282.597	288.770	297.945	288.043	8192	-8191	8192	8192	254	
77021.164	1	1	0	0	75.79	61.6544	62.5853	11.5042	54.2002	31.2231	17.2867	77.9652	226.13	233.341	213.356	124.438	193.726	176.135	141.312	260.216	108.374	306.811	105.677	149.334	286.405	295.704	251.327	281.703	8192	-8191	8192	8192	254	
77021.211	1	1	0	0	53.6496	65.1281	47.3562	3.59667	59.6834	27.5153	11.3458	92.8099	204.558	214.986	192.433	111.591	185.966	148.587	131.918	256.264	110.368	293.105	120.765	290.588	291.414	280.969	299.572	277.393	8192	-8191	8192	8192	254	
77021.266	1	1	0	0	65.7927	49.3101	52.9415	11.3973	52.9205	36.142	12.382	81.5745	192.51	204.784	194.596	107.226	184.654	146.433	130.875	253.947	109.095	302.411	112.650	284.973	287.613	260.852	288.645	280.734	8192	-8191	8192	8192	254	
77021.312	1	1	0	0	54.3364	53.6069	60.4743	10.0196	53.5735	25.4091	20.5452	81.1701	194.058	213.375	202.726	116.038	183.654	169.495	131.245	270.438	97.553	296.418	113.177	320.952	288.798	289.161	280.567	289.045	8192	-8191	8192	8192	254	
77021.359	1	1	0	0	53.6027	62.3087	54.8851	7.2252	56.7848	30.1755	5.74488	79.4227	198.606	209.25	201.351	120.005	192.317	167.337	133.486	255.865	108.491	292.656	96.671	269.199	293.742	296.034	270.259	280.229	8192	-8191	8192	8192	254	
77021.406	1	1	0	0	60.6426	61.0468	52.6408	1.66839	53.8929	35.762	8.75687	73.9431	200.447	206.712	192.014	108.76	180.332	144.111	119.014	235.726	122.421	299.554	108.882	13.137	276.307	280.318	359.065	285.593	8192	-8191	8192	8192	254	
77021.453	1	1	0	0	50.413	62.2726	57.7431	8.02093	55.4431	26.1475	11.356	81.9684	184.457	200.697	188.683	101.346	178.375	142.178	125.101	266.904	111.021	300.229	102.790	141.468	287.356	280.995	337.697	279.524	8192	-8191	8192	8192	254	
77021.500	1	1	0	0	69.9359	52.9551	56.8454	4.88108	50.1252	42.5614	13.7729	74.7711	206.308	222.221	199.005	118.236	191.678	162.255	137.803	263.269	113.496	303.239	100.498	154.539	284.618	298.554	278.753	284.313	8192	-8191	8192	8192	254	
77021.570	1	1	0	0	58.1781	56.0483	56.3675	6.56325	59.0372	21.3104	14.9596	85.654	214.827	209.433	201.668	117.899	193.572	161.226	137.01	252.212	115.387	307.021	111.090	169.832	283.590	292.966	303.951	282.608	8192	-8191	8192	8192	254	
77021.625	1	1	0	0	48.0907	54.928	65.1623	6.64653	45.9823	26.9715	19.0035	77.6575	198.952	216.582	203.476	125.63	192.543	164.548	127.5	269.091	105.868	302.471	107.508	74.978	274.314	298.589	277.013	282.244	8192	-8191	8192	8192	254	
77021.672	1	1	0	0	56.9719	52.7039	59.4568	4.66769	48.5173	37.1172	12.6742	82.709	217.361	223.264	208.923	127.466	201.587	174.067	141.654	264.697	120.575	304.421	108.213	174.789	282.431	262.666	266.226	279.330	8192	-8191	8192	8192	254	
77021.719	1	1	0	0	58.9775	51.8664	70.7701	3.02107	73.8284	30.414	15.3654	83.7915	222.091	229.375	225.144	135.029	226.212	185.375	159.361	288.481	113.334	291.922	109.499	332.481	286.986	291.502	274.885	278.462	8192	-8191	8192	8192	254	
77021.719	1	1	0	0	44.4727	62.1411	41.8864	3.44655	63.9495	36.9239	2.28388	63.7009	233.245	242.005	226.904	141.947	222.212	188.168	149.288	277.793	121.550	296.590	100.257	328.708	267.248	289.194	195.340	281.737	8192	-8191	8192	8192	254	
77021.766	1	1	0	0	65.3863	61.934	48.0766	2.64457	51.2459	29.4165	2.82096	85.4064	217.856	230.635	202.481	134.178	220.399	167.88	142.827	269.25	116.815	285.287	108.389	65.755	285.699	296.330	138.872	283.582	8192	-8191	8192	8192	254	
77021.836	1	1	0	0	58.6791	63.9204	54.3956	5.28607	56.3697	30.3964	3.01213	88.449	208.885	216.582	205.808	117.091	209.726	158.26	130.846	267.885	110.995	292.689	114.247	193.361	294.664	285.827	246.049	285.625	8192	-8191	8192	8192	254	
77021.883	1	1	0	0	62.7401	55.9959	56.0676	6.15632	55.4704	26.9638	9.67178	82.0249	211.284	215.361	204.75	123.572	192.288	162.413	134.779	251.245	120.301	303.532	100.898	238.446	287.855	284.395	205.864	289.376	8192	-8191	8192	8192	254	
77021.938	1	1	0	0	53.148	62.1582	54.9805	3.71308	46.1389	23.8808	6.36769	82.7403	207.88	216.962	197.75	117.346	189.25	164.082	133.952	265.889	119.930	309.112	103.996	163.672	288.930	259.934	299.139	285.708	8192	-8191	8192	8192	254	
77021.984	1	1	0	0	52.7992	51.2045	55.5727	9.79889	51.0542	27.9512	10.921	74.2533	207.327	203.394	199.255	116.192	187.798	151.923	127	251.375	110.470	303.836	104.458	279.655	299.341	289.017	297.192	288.287	8192	-8191	8192	8192	254	
77022.031	1	1	0	0	52.2653	63.1545	59.6683	7.87947	57.2946	26.3571	10.2863	81.8229	202.736	206.067	194.707	115.524	189.615	154.442	126.139	247.341	104.200	302.605	111.650	193.759	279.881	300.923	326.562	279.447	8192	-8191	8192	8192	254	
77022.078	1	1	0	0	58.4715	66.6414	60.0519	4.22257	45.1145	35.0452	8.53538	80.4777	197.649	200.933	200.784	115.154	176.822	154.466	127.01	249.885	117.315	291.631	117.892	36.145	280.709	277.972	5.343	281.639	8192	-8191	8192	8192	254	
77022.125	1	1	0	0	52.3714	57.5809	55.7612	5.61176	44.7964	30.1786	3.60245	87.5427	191.832	204.144	200.495	115.101	186.817	154.356	125.505	247.067	112.517	293.568	100.811	323.094	298.237	284.594	76.318	283.447	8192	-8191	8192	8192	254	
77022.172	1	1	0	0	46.8983	64.5527	39.4773	8.0995	44.8606	31.1101	7.66557	80.9023	193.457	211.106	187.01	110.596	180.721	150.135	126.466	251.548	112.356	309.360	97.162	151.573	274.144	286.982	335.598	283.328	8192	-8191	8192	8192	254	
77022.242	1	1	0	0	63.3148	55.6718	64.503	5.763	47.8277	34.9406	16.6856	90.2898	192.144	203.288	195.029	113.596	177.755	156.913	115.38	248.308	114.794	302.151	112.659	299.671	283.098	296.800	293.462	285.890	8192	-8191	8192	8192	254	
77022.297	1	1	0	0	60.7944	68.9753	65.3681	11.8022	37.5493	28.8917	8.01923	86.1599	191.688	207.812	189.293	107.856	176	147.837	118.457	238.745	121.837	296.494	101.589	324.246	284.356	301.054	286.719	276.858	8192	-8191	8192	8192	254	
77022.344	1	1	0	0	60.7904	59.3499	51.0914	5.83379	42.8496	25.3604	10.7587	73.6405	190.298	197.245	185.673	108.567	177.178	142.221	122.851	237.284	115.651	304.532	109.971	202.934	281.397	281.952	283.994	288.224	8192	-8191	8192	8192	254	
77022.391	1	1	0	0	47.7072	60.5787	61.1166	5.67726	58.8115	31.3861	10.1081	84.3103	183.24	195.952	195.25	109.226	193.197	155.918	122.029	250.841	109.089	296.278	114.450	102.778	290.952	301.481	244.992	288.008	8192	-8191	8192	8192	254	
77022.438	1	1	0	0	67.7856	48.3042	59.1889	12.9348	47.9346	25.6016	4.21636	72.5827	203.087	199.519	197.731	107.601	179.861	158.812	122.673	245.938	111.790	306.012	116.230	151.673	290.906	300.189	247.681	283.605	8192	-8191	8192	8192	254	
77022.484	1	1	0	0	63.2847	57.6525	46.701	7.29872	48.6612	31.9288	14.0566	75.1821	196.966	203.308	187.197	111.918	179.683	144.452	125.707	244.913	119.412	306.684	118.689	58.163	276.517	291.115	305.832	291.459	8192	-8191	8192	8192	254	
77022.484	1	1	0	0	74.2105	49.8662	49.0694	5.17246	56.7204	19.2626	9.41083	85.43	195.476	191.471	167.053	80.649	145.062	100.288	61.875	192.361	108.763	303.766	99.559	334.380	282.448	277.845	314.797	285.360	8192	-8191	8192	8192	254	
77022.531	1	1	0	0	63.2465	63.12	62.2959	3.18758	41.4851	31.0348	10.5212	80.0364	135.317	138.63	130.822	41.2356	109.486	88.8942	64.6971	187.692	98.494	308.526	102.735	14.192	282.067	292.472	298.072	283.285	8192	-8191	8192	8192	254	
77022.578	1	1	7	0	62.9738	60.0012	52.9561	4.40657	44.6037	26.8348	6.17578	80.5693	133.01	132.933	129.389	43.5288	114.606	87.4327	59.5481	187.438	114.112	303.121	105.702	318.833	285.139	278.759	325.033	280.272	8192	-8191	8192	8192	254	
77022.633	1	1	0	0	55.7989	60.2169	59.3433	1.76276	56.4268	27.0901	5.42752	74.9068	124.918	137.13	126.673	40.0673	116.385	86.4519	60.5817	181.111	110.320	292.686	105.816	268.598	285.954	283.249	317.469	293.751	8192	-8191	8192	8192	254	
77022.703	1	1	0	0	53.8911	60.2022	50.3496	5.16841	44.4948	28.8025	3.53563	88.4361	129.99	134.837	120.88	40.4087	106.202	86.0817	53.1394	182.986	113.135	295.869	112.690	305.312	283.260	295.905	341.804	286.558	8192	-8191	8192	8192	254	
77022.750	1	1	0	0	53.3083	58.8118	44.3743	2.57126	53.3918	34.8764	8.32977	89.7888	127.49	136.159	123.01	42.1298	124.707	87.3173	59.8125	178.062	113.566	302.356	111.823	135.199	281.548	296.880	268.424	282.526	8192	-8191	8192	8192	254	
77022.797	1	1	0	0	57.7811	66.2402	52.441	1.48241	57.7714	27.4384	12.1662	85.3701	129.466	139.082	126.981	42.4423	123.077	83.1731	57.1635	183.168	114.392	299.926	96.308	253.724	285.788	296.364	273.342	283.356	8192	-8191	8192	8192	254	
77022.844	1	1	0	0	64.2459	55.5407	49.1451	4.79041	58.2625	22.7183	20.1732	79.9548	136.135	136.817	120.279	40.7019	119.923	86.9952	70.2019	193.038	112.355	299.038	104.159	129.255	281.474	268.956	294.794	292.054	8192	-8191	8192	8192	254	
77022.891	1	1	0	0	48.75	60.639	65.0291	6.28548	58.0415	45.6802	8.49544	91.9595	143.279	157.702	162.596	94.7019	180.548	174.976	146.798	285.154	99.333	300.722	115.498	62.364	281.480	287.076	311.418	279.757	8192	-8191	8192	8192	254	
77022.945	1	1	0	0	57.5894	51.7641	56.4578	4.13397	64.1858	24.1965	7.44644	86.3969	225.072	215.106	201.918	111.226	186.413	154.067	106.428	236.13	112.947	307.808	107.488	219.351	282.607	276.834	355.620	286.305	8192	-8191	8192	8192	254	
77022.992	1	1	0	0	59.6811	48.8413	57.4309	2.87435	56.5159	30.028	9.1412	72.6725	171.909	188.952	182.418	98.4279	164.183	150.981	114.279	253.221	99.524	300.559	104.960	106.421	276.651	282.213	294.236	287.975	8192	-8191	8192	8192	254	
77023.039	1	1	0	0	68.1106	52.5004	55.7404	1.82324	46.7855	25.0818	12.6905	81.115	191.885	199.721	200.245	114.827	189.986	163.274	134.832	261.418	114.640	296.177	108.083	356.416	295.083	296.178	323.865	280.623	8192	-8191	8192	8192	254	
77023.109	1	1	0	0	75.5957	55.7397	63.1553	4.30046	53.196	25.113	17.2242	69.6887	204.038	212.01	209.274	123.788	205.74	170.375	149.688	279.269	109.770	297.802	110.159	359.873	282.816	296.050	261.146	283.579	8192	-8191	8192	8192	254	
77023.156	1	1	0	0	61.5784	59.9283	61.3597	2.05639	51.9766	18.596	11.5409	75.7196	221.966	229.418	217.798	134.827	201.553	176.668	139.317	259.019	122.569	301.727	102.699	283.506	279.085	290.004	301.764	274.502	8192	-8191	8192	8192	254	
77023.203	1	1	0	0	57.0472	48.5364	56.8916	10.0743	36.6481	26.8462	11.0302	80.3008	201.808	218.034	199.981	117.639	186.216	158.534	128.736	245.837	104.629	291.542	102.159	40.252	278.099	303.271	242.570	284.244	8192	-8191	8192	8192	254	
77023.258	1	1	0	0	48.8229	61.5306	57.1789	5.57852	53.0814	21.2408	4.51148	74.7385	190.769	194.668	188.692	99.6923	173.495	142.688	105.635	229.26	105.474	290.517	110.626	343.843	287.415	284.661	252.121	280.160	8192	-8191	8192	8192	254	
77023.258	1	1	0	0	56.4937	53.9904	59.6819	7.47798	50.603	30.0292	9.59902	88.5315	175.865	174.986	154.755	71.7837	136.49	101.962	71.524	190.663	99.801	306.670	113.793	342.129	290.492	291.765	287.012	282.226	8192	-8191	8192	8192	254	
77023.305	1	1	0	0	60.7734	53.6353	53.8874	5.25091	51.8338	25.6995	6.99473	79.1915	137.572	151	132.067	50.6346	130.168	90.0337	66.3413	194.947	100.549	301.859	110.816	192.654	291.284	288.836	278.286	283.302	8192	-8191	8192	8192	254	
77023.352	1	1	0	0	54.9711	54.6644	56.4468	2.11391	44.6439	20.0344	7.01983	75.1413	136.163	141.197	134.337	51.5577	117.966	86.875	67.3942	182.803	107.194	301.339	104.410	359.169	282.739	270.260	295.854	282.078	8192	-8191	8192	8192	254	
77023.398	1	1	0	0	56.7979	57.8181	48.4132	3.64523	49.011	24.7766	3.86785	87.6804	130.62	146.048	129.697	53.0913	122.644	92.7452	68.8029	183.159	102.864	292.085	110.946	233.371	291.141	272.108	347.263	291.181	8192	-8191	8192	8192	254	
77023.469	1	1	0	0	65.3314	51.9012	47.7314	1.55794	53.7592	26.1544	9.00744	89.7173	141.51	142.62	132.293	47.7596	125.635	93.2404	67.9423	197.668	96.839	302.099	109.797	113.271	283.244	277.829	286.028	285.282	8192	-8191	8192	8192	254	
77023.516	1	1	0	0	53.1148	62.4399	51.0294	1.5399	49.6492	29.0569	13.643	86.099	146.317	145.365	134.231	53.8654	123.543	92.4952	64.1202	190.543	112.004	294.266	100.296	283.324	286.422	291.597	297.139	283.135	8192	-8191	8192	8192	254	
77023.562	1	1	0	0	60.7874	52.0614	60.4102	2.25993	54.3808	35.8723	6.98374	82.8575	139.659	141.788	135.062	55.0144	123.856	99.7981	59.7067	196.13	114.358	302.330	109.192	52.035	274.091	297.069	300.262	278.308	8192	-8191	8192	8192	254	
77023.617	1	1	0	0	50.931	62.9653	50.9551	3.5352	51.5607	22.4898	12.3022	85.0555	126.519	149.471	130.159	50.5577	129.284	87.226	62.101	193.548	111.372	300.689	102.989	6.149	284.798	304.538	320.169	280.338	8192	-8191	8192	8192	254	
77023.664	1	1	0	0	63.7944	65.4071	55.3268	1.38198	46.2618	27.1927	4.31805	81.2268	142.37	149.26	133.308	47.4231	123.038	95.8702	66.6779	192.356	107.076	299.049	100.169	162.955	286.327	299.540	271.371	288.523	8192	-8191	8192	8192	254	
77023.711	1	1	0	0	53.4697	55.8955	52.6305	7.27018	63.3802	29.6333	14.1245	77.5968	139.731	141.572	134.587	54.9327	124.851	96.2212	67.6538	192.173	110.351	290.356	106.124	296.963	282.222	293.196	256.214	278.207	8192	-8191	8192	8192	254	
77023.781	1	1	0	0	63.3687	59.2515	57.3517	5.47697	54.5106	23.627	17.0237	81.0359	140.173	141.327	142.962	48.4183	123.014	89.5048	61.149	185.293	121.248	308.454	108.695	14.028	280.175	280.990	297.424	278.537	8192	-8191	8192	8192	254	
77023.828	1	1	0	0	62.1732	66.7384	48.0508	0.353231	49.1564	23.4349	10.4113	82.667	135.587	147.87	127.596	50.7885	124.5	88.5577	63.0337	195.341	106.440	302.017	106.879	21.321	288.022	284.708	299.263	283.098	8192	-8191	8192	8192	254	
77023.875	1	1	0	0	58.0182	50.8517	60.3534	1.10224	54.8943	34.2237	6.32896	84.3786	133.51	139.841	138.966	48.351	129.332	91.1106	65.1202	193.351	107.276	296.680	100.827	337.523	291.691	289.324	257.403	282.765	8192	-8191	8192	8192	254	
77023.930	1	1	0	0	54.653	58.5824	51.0283	1.18121	58.9231	24.775	12.8696	79.0885	137.692	138.183	133.231	45.4952	125.048	87.5962	65.6923	197.793	113.654	300.766	103.573	118.575	281.838	292.900	285.605	280.173	8192	-8191	8192	8192	254	
77023.977	1	1	0	0	59.8161	56.2022	51.4388	3.94887	50.8603	28.9603	5.79219	80.1185	137.995	148.885	138.26	51.9279	122.12	89.3798	68.7067	187.63	116.565	297.015	115.188	136.146	281.826	293.861	304.299	283.844	8192	-8191	8192	8192	254	
77024.023	1	1	0	0	58.4872	62.8862	55.0191	4.84538	51.6137	19.9624	1.62444	84.8947	132.933	143.418	128.913	51.7596	127.043	94.8942	66.3413	190.462	106.022	296.913	109.193	167.414	282.527	303.244	274.187	291.368	8192	-8191	8192	8192	254	
77024.023	1	1	0	0	63.2075	54.5237	52.0654	1.02963	51.8362	30.1298	12.4013	74.8363	141.221	146.269	129.812	45.3894	122.394	99.0577	65.5048	186.125	104.515	301.018	103.644	278.920	280.754	292.875	291.383	283.934	8192	-8191	8192	8192	254	
77024.070	1	1	0	0	65.35	57.2438	49.0728	2.80782	51.8881	31.8592	10.4646	84.6674	136.606	146.024	134.154	55.0048	119.562	97.1827	68.8365	193.774	101.533	302.389	104.065	278.896	285.770	297.621	329.761	283.051	8192	-8191	8192	8192	254	
77024.117	1	1	0	0	47.5299	66.5647	49.6254	2.55141	48.3244	23.0317	6.51745	83.8158	136.524	143.851	127.639	51.4231	125.082	98.9952	64.3702	183.413	119.395	291.609	117.653	355.355	288.243	294.760	296.164	284.487	8192	-8191	8192	8192	254	
77024.164	1	1	0	0	48.6085	66.1221	57.0781	2.447	50.6948	29.4131	12.7487	75.657	130.918	149.649	137.688	51.2788	125.341	95.0481	62.1731	190.567	108.358	297.013	105.436	59.989	277.173	284.604	263.033	289.108	8192	-8191	8192	8192	254	
77024.234	1	1	0	0	61.2126	61.5645	60.663	2.8551	46.6922	34.146	13.7129	78.3687	140.442	139.212	133.26	48.1875	124.885	92.2981	62.9904	190.173	104.158	301.859	117.113	115.135	288.811	290.941	314.973	287.224	8192	-8191	8192	8192	254	
77024.289	1	1	0	0	60.388	55.6703	51.8787	2.18818	50.9052	32.4551	1.51172	74.9658	134.418	142.62	135.572	51.7788	125.038	92.2452	64.7692	198.966	108.705	304.715	114.731	36.307	278.376	278.531	277.842	277.766	8192	-8191	8192	8192	254	
77024.336	1	1	0	0	58.6852	57.4312	60.171	3.69768	41.6972	24.7728	12.2449	79.4591	137.702	145.024	138.019	51.9904	123.63	96.3606	71.7163	195.495	108.527	296.363	107.083	194.732	303.345	295.373	296.864	282.303	8192	-8191	8192	8192	254	
77024.383	1	1	0	0	55.2469	56.9496	57.6115	7.43457	47.8608	33.1291	11.9705	86.9706	138.764	148.707	141.644	53.2548	129.587	102.832	71.2788	199.572	112.917	295.020	111.711	15.003	289.733	296.917	290.827	284.271	8192	-8191	8192	8192	254	
77024.430	1	1	0	0	62.062	52.845	47.9275	6.29468	53.8642	20.2684	9.25077	85.022	146.418	146.933	135.144	55.0625	135.043	103.091	69.024	207.721	109.669	297.516	110.613	244.564	277.337	286.747	298.654	283.397	8192	-8191	8192	8192	254	
77024.477	1	1	0	0	62.0482	53.9388	45.4936	1.38347	53.3156	26.915	12.3842	70.8585	151.976	158.587	143.51	67.5048	130.577	112.582	78.0769	208.529	112.979	304.764	117.038	307.726	274.040	287.485	281.505	287.089	8192	-8191	8192	8192	254	
77024.523	1	1	0	0	55.4606	58.7379	53.5335	4.82982	54.6117	27.6122	6.1861	91.1426	150.923	162.005	147.712	65.2692	144.159	107.014	75.25	208.038	111.011	315.931	107.552	281.073	290.438	305.492	287.199	284.123	8192	-8191	8192	8192	254	
77024.570	1	1	0	0	56.6448	49.4378	55.2259	3.0427	56.4436	20.9529	11.7753	79.8133	155.49	159.808	154.433	63.1106	143.288	107.899	81.7788	210.37	103.176	302.760	107.407	258.967	297.570	275.359	307.330	276.487	8192	-8191	8192	8192	254	
77024.648	1	1	0	0	53.2614	47.0624	50.6587	3.3695	45.784	33.4356	12.243	82.9902	157.01	160.279	149.322	72.8894	142.553	115.399	85.399	202.817	109.258	305.907	118.006	332.770	287.802	305.002	329.313	290.699	8192	-8191	8192	8192	254	
77024.695	1	1	0	0	60.7995	46.6541	56.2238	2.8259	49.0526	33.1188	6.5301	83.676	162.168	158.913	151.519	70.7548	142.534	110.668	83.1587	207.639	114.662	302.275	106.659	354.178	277.238	285.899	336.666	276.786	8192	-8191	8192	8192	254	
77024.742	1	1	0	0	73.1375	53.0575	60.3391	4.47365	52.9562	27.1859	11.5518	74.3186	156.986	162.014	157.899	72.3173	142.462	108.447	79.4615	208.827	113.045	293.456	111.463	193.271	282.636	287.166	290.771	280.916	8192	-8191	8192	8192	254	
77024.789	1	1	0	0	64.466	68.1126	49.1236	2.89478	43.4085	24.3851	4.98584	71.1863	152.548	163.558	148.13	67.3125	139.899	106.404	83.3413	199.755	117.385	308.039	115.078	327.345	290.345	295.238	318.505	284.954	8192	-8191	8192	8192	254	
77024.789	1	1	0	0	53.336	57.3371	58.872	2.74233	46.8003	28.3449	8.45166	79.8029	142.75	151.865	148.606	63.6442	136.197	109.861	73.7308	200.894	107.546	300.339	97.256	241.711	273.080	294.551	256.563	289.558	8192	-8191	8192	8192	254	
77024.836	1	1	0	0	60.4152	59.0166	58.5092	4.65049	53.6685	24.8427	6.33249	75.2196	151	160.904	144.303	60.2019	137.817	102.716	67.976	198.298	114.382	304.437	114.931	0.515	292.915	288.019	292.457	278.499	8192	-8191	8192	8192	254	
77024.883	1	1	0	0	54.9469	53.4681	59.2399	2.04547	51.5426	36.1053	9.4049	86.364	143.827	150.082	140.837	51.5529	134.24	96.3798	73.5673	207.562	121.009	297.605	113.482	152.466	285.187	296.256	289.756	283.995	8192	-8191	8192	8192	254	
77024.938	1	1	0	0	62.5601	60.8346	53.0233	3.42968	50.4516	25.1309	9.46181	73.4829	146.904	156.457	140.101	54.0962	129.62	94.7212	67.7644	192.654	107.033	298.937	98.059	325.014	292.194	274.144	303.856	279.169	8192	-8191	8192	8192	254	
77025.008	1	1	0	0	55.0768	66.0815	58.2832	4.14839	54.4966	20.92	1.95742	78.8538	134.524	151.236	138.149	50.5817	122.26	93.4423	65.0192	184.476	114.316	297.872	103.238	178.718	292.829	269.316	16.936	287.712	8192	-8191	8192	8192	254	
77025.055	1	1	0	0	57.9458	68.4673	55.9809	3.42549	37.3567	22.4216	9.85378	81.5766	138.12	144.418	134.481	50.8606	119.087	93.351	66.3365	186.976	121.020	300.996	108.131	153.596	289.145	290.061	276.065	286.014	8192	-8191	8192	8192	254	
77025.102	1	1	0	0	65.8209	51.5707	49.5266	7.66861	45.1901	33.476	8.18435	82.4934	138.505	147.043	126.423	49.5048	116.962	91.5	67.1538	189.144	113.853	298.569	111.743	187.096	280.288	301.691	289.888	280.054	8192	-8191	8192	8192	254	
77025.148	1	1	0	0	61.5457	51.099	57.4951	10.1682	47.9902	20.1455	5.85244	68.9886	136.788	132.99	130.197	47.6058	118.587	90.351	62.226	193.423	109.889	297.991	104.614	220.167	275.801	299.861	310.909	282.795	8192	-8191	8192	8192	254	
77025.195	1	1	0	0	69.2491	54.8795	64.5395	3.21358	63.4085	27.9074	10.9989	69.0487	134.365	140.014	129.962	45.2404	123.837	90.0337	65.8365	190.976	110.353	299.599	105.680	335.211	275.494	283.810	262.224	291.882	8192	-8191	8192	8192	254	
77025.250	1	1	0	0	68.2614	62.5724	59.0361	4.43258	49.0303	30.5813	4.20293	75.752	139.38	139.298	138.159	51.5865	121.389	89.3942	67.9375	193.135	102.331	293.269	111.931	354.010	277.775	291.218	278.063	282.273	8192	-8191	8192	8192	254	
77025.320	1	1	0	0	58.4615	53.7446	51.6627	1.84901	50.4984	26.3608	7.68997	81.8397	137.986	140.817	131.005	51.4567	126.841	93.4663	62.2933	189.346	116.326	301.047	120.972	85.874	290.060	288.909	293.694	282.409	8192	-8191	8192	8192	254	
77025.367	1	1	0	0	55.6193	51.509	58.2123	7.68076	53.4658	18.4093	7.99938	87.3808	130.101	139.245	134.596	47.8654	116.784	85.899	63.5192	190.692	105.431	305.073	106.958	290.234	292.864	281.635	329.852	291.508	8192	-8191	8192	8192	254	
77025.414	1	1	0	0	59.9685	55.3684	55.034	5.8242	47.1551	18.5498	9.17339	76.4363	134.312	146.337	134.418	51.8654	123.952	99.8173	67.726	182.337	105.913	295.436	110.398	104.689	282.586	295.551	271.450	284.402	8192	-8191	8192	8192	254	
77025.461	1	1	0	0	50.3487	58.2108	50.0376	1.94251	51.5636	37.2476	11.2983	88.7953	135.697	145.736	136.106	48.4183	121.038	87.0625	59.6298	193.524	107.491	295.917	109.087	203.187	280.421	286.549	300.821	288.320	8192	-8191	8192	8192	254	
77025.508	1	1	0	0	60.8234	58.9535	54.7042	4.59226	49.1275	24.0669	10.0155	81.0401	137.995	143.01	131.875	51.1683	121.529	92.7788	68.4375	190.043	108.063	301.211	108.488	193.770	283.136	282.792	263.676	284.624	8192	-8191	8192	8192	254	
77025.555	1	1	0	0	55.0243	62.0463	56.6076	1.1956	47.2116	29.4541	8.74653	81.8507	129.486	143.438	133.524	52.1202	119.12	94.2548	61.8462	190.894	116.279	295.181	116.855	309.104	289.879	284.553	293.104	283.145	8192	-8191	8192	8192	254	
77025.562	1	1	0	0	51.5636	57.3997	55.8847	4.24071	52.7286	24.5745	7.40588	79.9924	128.803	144.966	127.774	46.7163	121.202	88.9327	61.3846	185.452	107.826	296.270	104.407	158.702	285.684	272.605	267.996	279.671	8192	-8191	8192	8192	254	
77025.609	1	1	0	0	62.3864	55.4394	56.8542	2.68566	56.1637	27.641	12.3283	80.3463	136.798	142.409	137.351	47.0048	127.389	92.9712	65.5721	189.846	104.521	298.377	106.185	300.514	290.635	307.368	283.407	287.483	8192	-8191	8192	8192	254	
77025.656	1	1	0	0	62.9862	56.786	52.2593	6.2765	56.1718	19.588	8.02854	82.0512	134.721	140.067	131.798	46.274	124.755	87.1058	65.4327	186.226	118.311	295.635	106.133	34.235	287.365	270.803	251.631	283.807	8192	-8191	8192	8192	254	
77025.703	1	1	0	0	56.5859	52.7902	56.2281	6.89472	56.1094	28.3467	8.24561	85.0265	130.288	129.909	133.332	49.0192	119.755	88.0096	62.2404	194.159	117.937	289.723	110.445	351.197	284.033	275.446	335.755	286.544	8192	-8191	8192	8192	254	
77025.773	1	1	0	0	66.4501	50.8213	55.4908	0.784774	43.0795	36.6252	14.6267	79.3737	133.952	148.572	135.192	49.976	125.144	101.639	63.6394	194.385	104.401	304.082	121.563	0.716	283.538	277.128	295.926	281.646	8192	-8191	8192	8192	254	
77025.820	1	1	0	0	58.2265	63.2587	49.5015	3.89981	60.8327	34.4349	10.9865	79.4765	139.212	138.865	128.048	51.2212	128.058	91.7356	58.9856	192.365	121.764	299.313	104.368	294.084	284.207	275.919	308.073	289.441	8192	-8191	8192	8192	254	
77025.867	1	1	8	0	62.2884	64.1974	58.9324	4.53507	48.801	16.9613	12.9393	65.1893	137.558	149.851	129.904	48.3654	120.274	93.5337	65.8942	181.894	110.865	293.195	108.599	197.483	297.411	279.518	300.565	289.614	8192	-8191	8192	8192	254	
77025.922	1	1	0	0	59.531	63.663	55.292	3.45155	57.1521	33.8336	6.45079	86.2296	136.562	145.279	133.639	51.3125	121.865	92.9856	58.6971	189.606	110.882	296.283	114.006	119.746	291.156	288.637	282.122	283.305	8192	-8191	8192	8192	254	
77025.969	1	1	0	0	61.2487	59.5313	59.6947	2.10248	48.9622	28.898	9.14403	75.9215	136.702	147.178	139.534	52.3365	132.654	92.25	66.7885	186.957	110.486	296.678	102.639	61.370	286.396	280.992	254.701	285.633	8192	-8191	8192	8192	254	
77026.016	1	1	0	0	51.8124	65.9597	67.7741	1.36019	51.5951	31.5485	12.9642	85.5564	140.303	144.976	130.769	47.0577	120.577	92.3365	60.5481	187.37	116.439	304.594	102.656	59.913	289.116	304.629	275.900	286.909	8192	-8191	8192	8192	254	
77026.062	1	1	0	0	49.0792	67.3697	55.863	3.49667	49.9607	24.9325	7.1821	73.1941	131.495	146.303	125.798	49.0769	123.341	85.9663	63.1538	172.375	117.211	296.518	108.297	51.928	299.947	273.077	296.574	282.746	8192	-8191	8192	8192	254	
77026.109	1	1	0	0	57.4048	61.3191	61.5809	2.85085	53.2425	25.3564	9.47709	83.0776	131.514	152.101	139.245	47.3365	122.644	91.5096	65.5433	184.75	106.672	302.627	109.841	154.756	281.945	270.525	270.342	289.023	8192	-8191	8192	8192	254	
77026.180	1	1	0	0	57.6015	61.2185	45.5841	2.13943	50.3685	24.4577	16.3299	80.457	132.385	139.375	125.74	52.3077	121.918	86.1875	61.0769	199.822	102.621	303.468	121.756	325.886	296.897	296.462	303.580	289.457	8192	-8191	8192	8192	254	
77026.234	1	1	0	0	55.7158	58.995	47.5792	2.88177	53.3999	33.0031	4.37175	74.3117	131.817	148.659	124.918	51.601	119.808	101.582	61.9663	180.952	112.945	299.172	103.857	343.263	286.980	289.535	283.505	278.796	8192	-8191	8192	8192	254	
77026.281	1	1	0	0	70.0882	58.1318	48.5274	1.18157	44.3303	29.3706	9.11847	73.624	140	142.043	136.25	46.2404	121.865	90.8846	68.2404	182.168	109.160	288.267	105.285	184.740	285.823	290.803	296.953	283.272	8192	-8191	8192	8192	254	
77026.328	1	1	0	0	53.8941	65.2315	46.4629	0.865254	57.8769	26.6016	9.44089	80.7253	135.904	148.111	133.971	47.4663	124.38	87.4808	56.125	192.269	111.533	306.385	101.926	290.713	275.589	283.990	296.699	287.538	8192	-8191	8192	8192	254	
77026.328	1	1	0	0	67.6449	52.0549	45.5087	2.17319	55.1025	20.2137	9.18077	70.3062	135.26	140.49	128.74	49.5048	129.457	90.3798	60.8125	182.447	112.108	304.799	116.028	261.296	279.674	284.548	284.039	286.877	8192	-8191	8192	8192	254	
77026.375	1	1	0	0	62.9713	52.7348	54.9347	1.47879	54.2844	30.1835	8.16535	79.4747	136.519	142.245	127.534	44.7308	126.111	88.9856	62.1827	192.986	108.680	301.892	114.660	289.437	278.059	281.799	252.147	283.191	8192	-8191	8192	8192	254	
77026.422	1	1	0	0	56.6358	63.0882	63.166	3.19632	56.4038	26.2229	8.67574	82.5462	131.019	149.697	130.322	48.6442	120.668	87.2212	66.7885	190.163	112.622	297.615	106.109	329.285	283.953	281.632	263.713	281.565	8192	-8191	8192	8192	254	
77026.469	1	1	0	0	63.0855	54.4112	47.1125	1.15045	56.6423	25.7807	7.37161	85.0105	140.918	138.466	129.678	42.8077	122.337	88.6923	61.399	189.308	110.470	305.255	103.203	38.560	290.782	295.610	336.728	294.100	8192	-8191	8192	8192	254	
#DATA ENDS
