BOXY.EXE: ISS Imagent Data Acquisition Program Version 0.82
Ascii Record File

#ACQ INFORMATION
1  Detector Channels 
8  External MUX Channels 
4  Auxiliary Analog Channels 
5000  Waveform (CCF) Frequency (Hz)
4  Waveforms Skipped 
26  Waveforms Averaged 
1  Cycles Averaged 
8  Acquisitions per Waveform 
1  Auxiliary Digital Channels 

#Data Update Rate
20.8333  Update Rate (Hz) 
FALSE -- Use Phase Reference
FALSE -- Use Continuous Phase Reference
FALSE -- Use Intensity Reference
FALSE -- Use Continuous Intensity Reference

#FILE INFORMATION
TRUE -- External MUX Channel results are PARSED.
FALSE -- AC DC and Phase are NOT grouped.
TRUE -- Companion Program Settings File CREATED.
FALSE -- AC data not excluded
FALSE -- DC data not excluded
FALSE -- Phase data not excluded
FALSE -- Auxillary Chn. data not excluded
Tab delimiters

#CALIBRATION STATE
FALSE -- Waveform Calibration Values NOT applied.

#WAVELENGTH DATA
Wavelength Index	Wavelength	Comp1 ExtCoef	Comp2 ExtCoef	Comp3 ExtCoef	Comp4 ExtCoef	BackGround	Weight	

1	6.600e+02	1.486e+00	3.844e+00	1.000e+00	1.000e+00	1.890e-02	1.000e+00	
2	6.900e+02	2.315e+00	1.792e+00	1.000e+00	1.000e+00	2.180e-02	1.000e+00	
3	7.500e+02	1.000e+00	1.000e+00	1.000e+00	1.000e+00	3.010e-03	1.000e+00	
4	7.750e+02	1.000e+00	1.000e+00	1.000e+00	1.000e+00	3.240e-03	1.000e+00	
5	7.850e+02	1.000e+00	1.000e+00	1.000e+00	1.000e+00	1.660e-02	1.000e+00	
6	8.000e+02	1.000e+00	1.000e+00	1.000e+00	1.000e+00	1.480e-02	1.000e+00	
7	8.250e+02	1.000e+00	1.000e+00	1.000e+00	1.000e+00	1.620e-02	1.000e+00	
8	8.300e+02	1.000e+00	1.000e+00	1.000e+00	1.000e+00	2.620e-02	1.000e+00	


#AUX CALIBRATION VALUES
Val Type	aux-1	aux-2	aux-3	aux-4	

Term	0.0000e+00	0.0000e+00	0.0000e+00	0.0000e+00	
Factor	1.0000e+00	1.0000e+00	1.0000e+00	1.0000e+00	


#WF CALIBRATION VALUES
A = Detector Channel
Val Type	A-AC1	A-AC2	A-AC3	A-AC4	A-AC5	A-AC6	A-AC7	A-AC8	A-DC1	A-DC2	A-DC3	A-DC4	A-DC5	A-DC6	A-DC7	A-DC8	A-Ph1	A-Ph2	A-Ph3	A-Ph4	A-Ph5	A-Ph6	A-Ph7	A-Ph8	

Term	0.00000e+00	0.00000e+00	0.00000e+00	0.00000e+00	0.00000e+00	0.00000e+00	0.00000e+00	0.00000e+00	0.00000e+00	0.00000e+00	0.00000e+00	0.00000e+00	0.00000e+00	0.00000e+00	0.00000e+00	0.00000e+00	-1.05892e+02	-9.99249e+01	-2.86485e+02	-2.62799e+02	-2.45797e+02	-2.48632e+02	-7.72400e+01	-7.86612e+01	
Factor	3.48934e-02	2.88771e-02	2.23541e-02	4.58344e-02	3.11822e-02	3.92311e-02	3.80806e-02	2.80088e-02	4.70955e+01	8.07534e+01	3.66973e+01	1.04434e+02	6.45565e+01	3.94082e+01	9.13796e+01	5.49806e+01	X	X	X	X	X	X	X	X	



#DISTANCE SETTINGS
A = Detector Channel
A-1	A-2	A-3	A-4	A-5	A-6	A-7	A-8	

1.5000e+00	1.5000e+00	1.5000e+00	1.5000e+00	1.5000e+00	1.5000e+00	1.5000e+00	1.5000e+00	



#ADDITIONAL SIGNAL INFORMATION
A = Detector Channel
Info. Type	A-1	A-2	A-3	A-4	A-5	A-6	A-7	A-8	

cal. block. ind.	1	1	1	1	1	1	1	1	
wavelength ind.	0	1	2	3	4	5	6	7	
weight	1.0000e+00	1.0000e+00	1.0000e+00	1.0000e+00	1.0000e+00	1.0000e+00	1.0000e+00	1.0000e+00	


#CALIBRATION BLOCK OPTICAL PROPS
Calib. Block Num.	WaveLen Index	Absorption	Scattering	

1	1	1.080e-01	9.000e+00	
1	2	1.300e-01	1.070e+01	
1	3	1.130e-01	9.400e+00	
1	4	1.210e-01	1.000e+01	
1	5	1.080e-01	9.000e+00	
1	6	1.300e-01	1.070e+01	
1	7	1.150e-01	9.600e+00	
1	8	1.330e-01	1.090e+01	

Calib. Block Num.	WaveLen Index	Absorption	Scattering	

2	1	1.120e-01	4.400e+00	
2	2	1.200e-01	5.700e+00	
2	3	1.140e-01	4.600e+00	
2	4	1.160e-01	5.100e+00	
2	5	1.120e-01	4.400e+00	
2	6	1.200e-01	5.700e+00	
2	7	1.150e-01	4.800e+00	
2	8	1.210e-01	6.000e+00	

Calib. Block Num.	WaveLen Index	Absorption	Scattering	

3	1	9.300e-02	8.700e+00	
3	2	1.010e-01	1.040e+01	
3	3	9.500e-02	9.000e+00	
3	4	9.700e-02	9.600e+00	
3	5	9.300e-02	8.700e+00	
3	6	1.010e-01	1.040e+01	
3	7	9.600e-02	9.300e+00	
3	8	1.030e-01	1.080e+01	

Calib. Block Num.	WaveLen Index	Absorption	Scattering	

4	1	1.000e-01	1.000e+01	
4	2	1.000e-01	1.000e+01	
4	3	1.000e-01	1.000e+01	
4	4	1.000e-01	1.000e+01	
4	5	1.000e-01	1.000e+01	
4	6	1.000e-01	1.000e+01	
4	7	1.000e-01	1.000e+01	
4	8	1.000e-01	1.000e+01	



#DATA BEGINS
time	group	step	mark	flag	A-AC1	A-AC2	A-AC3	A-AC4	A-AC5	A-AC6	A-AC7	A-AC8	A-DC1	A-DC2	A-DC3	A-DC4	A-DC5	A-DC6	A-DC7	A-DC8	A-Ph1	A-Ph2	A-Ph3	A-Ph4	A-Ph5	A-Ph6	A-Ph7	A-Ph8	aux-1	aux-2	aux-3	aux-4	digaux	

77688.234	1	1	0	768	3666.01	6.52847	3487.17	1614.38	537.173	5094.45	1.8497	10.3162	5507.56	54.5	5072.57	2577.18	930.014	8719.29	48.1923	44.8846	189.127	22.479	3.478	7.508	10.524	3.787	134.125	191.652	8192	-8191	8192	8192	254	
77688.281	1	1	0	0	4587.33	4753.16	4180.35	5.39448	3488.54	1621.57	526.94	5042.78	6786	7684	6335.12	58.1346	5040.82	2573.43	929.716	8765.87	188.448	17.018	187.207	36.717	4.099	6.743	10.497	4.323	8192	-8191	8192	8192	254	
77688.359	1	1	0	0	4638.11	4802.47	4255.9	4.55485	3456.64	1634.08	544.039	5064.3	6783.08	7695.27	6420.54	53.6923	5025.84	2562.89	943.024	8731.38	188.087	17.150	187.992	143.879	2.824	7.614	9.146	3.496	8192	-8191	8192	8192	254	
77688.406	1	1	0	0	4631.59	4726.49	4310.34	8.60156	3540.15	1628.05	537.489	5056.07	6788.64	7621.07	6480.15	57.9327	5052.86	2586.82	937.178	8733.09	188.357	16.486	186.487	357.211	3.190	7.661	12.687	3.857	8192	-8191	8192	8192	254	
77688.453	1	1	0	0	4631.12	4735.39	4315.59	10.4868	3495.85	1633.44	529.906	5061.44	6786.3	7684.66	6448.5	53.9183	5053.89	2580.4	921.101	8738.95	188.204	16.352	187.827	19.522	3.653	6.995	10.780	3.702	8192	-8191	8192	8192	254	
77688.500	1	1	0	0	4608.23	4734.07	4285.66	8.19306	3477.75	1640.92	520.215	5013.9	6757.21	7626.65	6471.47	57.7788	4993	2576.83	916.644	8712.85	188.016	16.466	186.995	7.916	3.576	8.236	12.113	3.596	8192	-8191	8192	8192	254	
77688.547	1	1	0	0	4606.43	4795.97	4316.93	3.51061	3482.85	1622.77	518.886	4989.68	6749.97	7720.5	6526.44	51.8221	5036.87	2563.44	913.096	8658.9	188.354	16.402	186.508	68.504	3.797	7.573	13.357	4.133	8192	-8191	8192	8192	254	
77688.594	1	1	0	0	4604.41	4751.44	4278.52	7.40177	3415.89	1612.43	516.909	5077.08	6774.44	7706.7	6479.21	54.7885	5012.64	2579.28	915.457	8757.92	188.032	16.755	187.423	61.514	3.789	7.819	11.196	3.527	8192	-8191	8192	8192	254	
77688.648	1	1	0	0	4619.99	4756.57	4249.7	11.7604	3444.85	1607.18	524.529	5032.13	6762.54	7699.2	6512.15	53.4712	5007.12	2581.25	920.529	8721.61	188.423	17.041	186.694	342.800	4.021	7.461	6.748	3.659	8192	-8191	8192	8192	254	
77688.695	1	1	0	0	4583.65	4752.75	4238.21	6.48939	3514.36	1613.45	531.564	5004.68	6774.75	7706.43	6466.51	54.1635	5066.53	2585.19	934.721	8678.19	188.886	16.312	187.112	332.967	3.452	8.809	7.002	4.206	8192	-8191	8192	8192	254	
77688.766	1	1	0	0	4643.81	4748.12	4209.73	6.00474	3429.96	1614.25	544.937	5110.23	6836.62	7659.94	6475.8	54.3365	4987.1	2591.39	945.543	8769.5	188.469	16.744	188.106	30.844	3.166	6.996	10.903	3.795	8192	-8191	8192	8192	254	
77688.812	1	1	0	0	4611.4	4702.51	4325.37	7.27492	3457.75	1632.5	511.745	5018.02	6786.46	7581.6	6546.78	52.2885	5020.37	2570.61	925.88	8691.9	188.822	16.107	187.459	9.242	3.920	6.283	13.468	4.667	8192	-8191	8192	8192	254	
77688.859	1	1	0	0	4574.48	4694.1	4346.14	7.42052	3479.38	1634.51	543.222	4984.95	6724.13	7610.34	6562.3	53.8029	5053.2	2583.1	923.053	8744.16	188.272	16.258	187.460	22.818	3.397	7.367	9.333	3.856	8192	-8191	8192	8192	254	
77688.906	1	1	0	0	4580.98	4788.3	4236.37	9.54461	3519.86	1595.69	539.967	5041.45	6738.14	7710.79	6503.38	56.5385	5049.02	2559.73	931.365	8762.05	187.916	16.884	187.643	1.896	3.351	8.642	11.431	4.157	8192	-8191	8192	8192	254	
77688.953	1	1	0	0	4557.17	4723.37	4320.22	4.28931	3495.4	1636.24	525.756	5089.01	6725.46	7681.4	6539.19	61.5288	5057.26	2574.1	918.75	8790.7	188.366	15.996	188.078	4.574	3.527	6.626	9.826	3.586	8192	-8191	8192	8192	254	
77689.008	1	1	0	0	4613.59	4750.07	4338.92	10.4216	3463.99	1613.56	546.759	5033.51	6806.31	7684.02	6554.49	57.7019	5053.08	2576.42	952.803	8677.86	189.432	16.889	187.525	357.575	3.569	7.096	9.587	3.987	8192	-8191	8192	8192	254	
77689.008	1	1	0	0	4528	4828.76	4232.25	5.15976	3492.28	1585.87	502.481	4988.66	6695.93	7678.74	6527.89	51.5962	5024.25	2550.73	919.567	8708.55	188.310	16.715	187.192	328.005	3.428	6.855	11.153	3.654	8192	-8191	8192	8192	254	
77689.055	1	1	0	0	4552.57	4800.15	4300.16	5.94519	3501.14	1627.98	523.547	4998.84	6728.04	7697.36	6572.86	54.9519	5056.01	2578.68	916.115	8695.29	188.098	16.852	187.654	4.241	3.613	7.075	10.195	3.788	8192	-8191	8192	8192	254	
77689.102	1	1	1	0	4625.87	4796.52	4306.16	7.1902	3523.47	1650.44	516.306	5035.47	6799.39	7674.16	6509.3	52.2404	5059.49	2586.98	934.24	8715.05	188.805	17.441	187.340	39.939	3.712	8.384	11.093	4.405	8192	-8191	8192	8192	254	
77689.148	1	1	0	0	4583.29	4815.21	4320.63	4.35284	3461.36	1611.49	491.597	5040.6	6751.89	7695.18	6553.31	56.2981	5056	2567.87	922.558	8724.35	187.909	16.262	187.125	8.363	3.595	6.555	11.086	3.854	8192	-8191	8192	8192	254	
77689.219	1	1	0	0	4592.93	4798.5	4280.24	2.37529	3516.25	1633.22	522.466	5057.1	6764.62	7714.18	6520.03	53.9952	5069.5	2587.68	921.87	8750.32	188.252	17.333	187.454	7.013	4.362	7.958	10.261	4.169	8192	-8191	8192	8192	254	
77689.266	1	1	0	0	4579.86	4691.65	4238.68	5.59164	3465.95	1629.66	532.428	5052.06	6738.08	7621.7	6503.02	53.2308	5025.08	2557.1	944.803	8710.64	188.717	16.687	187.140	52.719	2.335	8.053	9.227	4.231	8192	-8191	8192	8192	254	
77689.320	1	1	0	0	4660.98	4798.84	4281.72	5.39993	3530.08	1626.53	534.159	5007.61	6828.21	7694.42	6543.28	53.3029	5063.57	2570.58	931.764	8706.23	188.253	16.441	187.220	5.919	2.998	7.109	9.101	3.772	8192	-8191	8192	8192	254	
77689.367	1	1	0	0	4561.58	4755.55	4336.18	5.98918	3512.79	1628.11	510.839	5039.1	6752.03	7677.17	6540.25	57.5144	5053.84	2588.25	902.885	8751.66	187.780	16.368	187.233	299.317	3.175	7.624	12.411	3.269	8192	-8191	8192	8192	254	
77689.414	1	1	0	0	4544.95	4846.2	4276.22	6.89971	3563.12	1657.16	530.667	5056.13	6710.99	7760.17	6519.58	57.6538	5073.21	2606.09	925.803	8711.82	188.776	16.847	186.190	4.992	3.913	6.492	11.933	3.719	8192	-8191	8192	8192	254	
77689.461	1	1	0	0	4604.29	4731.78	4322.38	14.1565	3497.23	1641.18	519.945	5059.95	6770.42	7637.38	6545.38	58.7452	5037.23	2578.16	926.928	8761.15	188.563	16.519	187.533	36.489	4.037	7.348	10.276	3.935	8192	-8191	8192	8192	254	
77689.531	1	1	0	0	4614.55	4724.89	4275.32	7.25666	3498.39	1657.96	508.198	5012.61	6773.43	7661.48	6546.9	55.1298	5020.18	2600.99	916.433	8749.43	188.250	16.442	187.740	39.892	3.750	9.241	10.033	4.800	8192	-8191	8192	8192	254	
77689.578	1	1	0	0	4593.71	4745.69	4325.5	2.19962	3484.5	1622.83	545.139	5060.46	6823.67	7666.98	6557.96	51.0481	5040.17	2572.57	922.88	8737.73	188.701	16.744	187.720	60.841	3.765	8.273	12.213	4.115	8192	-8191	8192	8192	254	
77689.633	1	1	0	0	4541.75	4721.11	4280.21	1.33957	3547.35	1656.79	565.727	5058.72	6728.79	7677.93	6546.78	53.6442	5080.2	2568.95	943.125	8725.55	188.695	16.109	187.598	43.127	3.823	7.056	11.076	3.629	8192	-8191	8192	8192	254	
77689.680	1	1	0	0	4576.63	4721.25	4278.59	4.97331	3436.38	1615.7	519.237	5048.3	6758.47	7628	6553.57	55.149	5031.87	2579.54	936.562	8708.95	188.568	17.067	187.352	169.336	4.263	7.604	10.950	3.155	8192	-8191	8192	8192	254	
77689.727	1	1	0	0	4546.15	4808.75	4286.71	2.32511	3485.95	1609.7	520.055	5059.4	6739.78	7700.87	6511.76	53.6827	5025.92	2570.58	912.202	8728.54	187.694	16.805	187.116	307.932	3.920	7.005	12.355	4.913	8192	-8191	8192	8192	254	
77689.773	1	1	0	0	4581.32	4670.32	4311.14	2.33618	3390.3	1646.34	514.377	4968.78	6757.99	7625.62	6502.67	55.101	4963.79	2580.35	920.236	8666.33	188.315	17.253	187.697	62.908	3.870	6.008	11.563	3.605	8192	-8191	8192	8192	254	
77689.773	1	1	0	0	4533.3	4684.72	4281.2	11.4273	3506.98	1630.21	529.42	5045.41	6711.25	7674.04	6538.1	56.6298	5038.26	2568.54	922.649	8672.99	188.613	17.135	187.272	49.343	4.111	6.711	12.977	3.954	8192	-8191	8192	8192	254	
77689.820	1	1	0	0	4565.12	4781.45	4308.42	15.7395	3453.68	1585.5	539.367	5050.51	6775.4	7674.2	6523.15	56.8029	5027.95	2553.69	920.26	8708.39	188.486	16.262	187.217	21.393	3.551	7.220	9.803	3.774	8192	-8191	8192	8192	254	
77689.891	1	1	0	0	4602.69	4785.41	4247.8	6.92481	3470.55	1610.22	515.002	5072.94	6805.63	7712.7	6472.72	55.3173	5012.75	2591.95	919.274	8715.25	189.094	16.378	187.325	8.294	3.037	8.120	12.439	3.834	8192	-8191	8192	8192	254	
77689.945	1	1	0	0	4565.61	4715.7	4275.19	9.22012	3469.17	1669.15	517.722	5095.85	6731.36	7640.18	6559.19	55.1683	5024.67	2593.74	921.029	8745.77	188.290	16.621	186.795	82.985	4.033	7.174	10.805	3.123	8192	-8191	8192	8192	254	
77689.992	1	1	0	0	4564.58	4719.4	4368.56	6.76061	3394.82	1637.62	498.604	5065.58	6737.54	7634.84	6565.15	55.0048	4973.66	2595.06	911.404	8719.13	188.588	15.684	187.037	26.424	3.722	7.514	7.532	3.641	8192	-8191	8192	8192	254	
77690.039	1	1	0	0	4572.68	4770.29	4318.64	4.19241	3544.28	1638.86	536.18	5038.67	6775.12	7706.76	6533.16	53.7308	5066.75	2575.54	925.168	8765.02	188.214	16.720	187.244	313.823	3.048	6.884	12.325	4.791	8192	-8191	8192	8192	254	
77690.086	1	1	0	0	4566.78	4788.99	4303.71	5.15316	3475.79	1621.37	515.634	4964.17	6750.51	7691.07	6572.99	52.6346	5001.51	2548.23	917.62	8679.58	189.000	15.767	187.130	5.124	3.198	6.198	10.999	3.399	8192	-8191	8192	8192	254	
77690.133	1	1	0	0	4617.08	4795.86	4278.18	2.7584	3473.77	1636.44	530.975	5028.21	6709.82	7724.09	6490.75	55.4904	5037.08	2584.51	929.341	8708.86	187.685	17.082	187.742	332.906	4.211	8.150	9.211	3.499	8192	-8191	8192	8192	254	
77690.180	1	1	0	0	4606.51	4761.88	4267.57	6.71509	3458.65	1639.71	529.951	4923.92	6759.35	7654.51	6530.61	55.0817	5013.12	2574.82	909.62	8646.71	188.344	16.901	187.373	31.324	3.405	7.365	9.670	3.811	8192	-8191	8192	8192	254	
77690.227	1	1	0	0	4603.64	4772.08	4351.08	7.9955	3483.24	1643.91	544.723	5015.62	6758.88	7668.68	6546.82	55.5817	5035.97	2579.52	932.149	8683.39	188.771	16.445	187.136	24.830	2.966	5.888	10.023	3.762	8192	-8191	8192	8192	254	
77690.305	1	1	0	0	4610.88	4748.48	4338.64	2.99451	3449.7	1602.3	538.701	5074.06	6766.82	7686.79	6560.87	53.0337	5049.22	2566.32	925.188	8722.13	188.690	16.634	188.124	45.706	3.915	7.591	9.311	3.290	8192	-8191	8192	8192	254	
77690.352	1	1	0	0	4560	4727.16	4327.04	7.06691	3457.42	1626.67	534.334	5018.98	6731.91	7642.5	6522.99	55.1538	5044.16	2562.93	931.26	8727.1	187.922	15.894	186.884	53.295	3.830	6.695	12.938	3.503	8192	-8191	8192	8192	254	
77690.398	1	1	0	0	4565.33	4745.58	4300.19	7.17317	3457.52	1611.23	516.121	4951.67	6743.98	7676	6562.08	53.9327	5000.25	2552.08	916.404	8716.5	188.605	15.482	187.398	41.853	3.228	6.582	9.306	4.293	8192	-8191	8192	8192	254	
77690.445	1	1	0	0	4585.94	4811.73	4331.25	6.81593	3499.88	1623.52	521.284	5007.81	6794.21	7695.43	6525.58	59.6923	5053.86	2576.51	927.317	8672.55	188.447	17.674	187.124	35.957	3.450	7.474	10.503	3.536	8192	-8191	8192	8192	254	
77690.492	1	1	0	0	4545.61	4774.11	4344.27	2.00391	3423.55	1655.3	538.221	5053.49	6732.53	7687.02	6535.09	58.5769	5022.22	2584.9	929.913	8648.63	187.878	17.255	186.762	74.867	4.203	6.587	10.116	3.771	8192	-8191	8192	8192	254	
77690.539	1	1	0	0	4633	4778.71	4277.62	7.40938	3540.11	1619.12	531.54	5011.12	6767.52	7727.38	6536.56	55.7356	5057.26	2579.66	925.245	8732.03	187.857	16.083	187.512	27.612	4.208	7.650	11.690	4.140	8192	-8191	8192	8192	254	
77690.539	1	1	0	0	4679.41	4727.96	4342.26	8.70421	3533.34	1611.39	526.026	5065.56	6825.6	7642.14	6526.8	55.4663	5055.07	2575.61	943.433	8764.38	188.889	16.765	186.541	348.157	2.991	6.995	11.310	4.306	8192	-8191	8192	8192	254	
77690.594	1	1	0	0	4580.71	4745.24	4303.85	5.43087	3541.09	1616.92	509.082	5065.41	6727.76	7708.59	6557.11	51.601	5060.73	2557.27	914.433	8747.68	188.848	17.018	188.064	343.594	3.579	8.946	12.295	3.365	8192	-8191	8192	8192	254	
77690.664	1	1	0	0	4487.33	4742.29	4239.59	6.5433	3460.75	1638.98	513.555	4994.63	6672.81	7678.54	6512.09	54.3942	4991.68	2587.04	920.962	8678.31	188.275	17.449	186.902	10.257	3.860	8.958	10.776	3.625	8192	-8191	8192	8192	254	
77690.711	1	1	0	0	4592.6	4713.28	4223.09	12.1042	3495.62	1624.65	523.704	4945.09	6743.52	7642.2	6471.84	56.7115	5066.83	2592.94	932.173	8640.85	188.732	17.426	187.128	26.168	4.221	6.935	10.532	3.850	8192	-8191	8192	8192	254	
77690.758	1	1	0	0	4562.93	4716.18	4320.59	5.43075	3465.24	1649.8	531.749	5012.7	6724.67	7678.78	6563.83	56.3413	5047.67	2586.88	933.13	8663.07	188.127	16.323	187.077	280.100	4.090	6.732	8.447	4.182	8192	-8191	8192	8192	254	
77690.805	1	1	0	0	4583.41	4736.64	4298.7	10.2672	3509.01	1630.41	512.73	5030.93	6728.51	7660.92	6543.02	58.3173	5051.46	2539.1	900.125	8709.51	188.659	17.484	187.237	40.125	3.490	6.772	10.018	3.965	8192	-8191	8192	8192	254	
77690.852	1	1	0	0	4624.77	4755.57	4246.2	3.87263	3469.03	1614.93	526.012	5000.58	6785.2	7668.37	6505.07	57.2596	4998.01	2578.58	924.971	8740.78	187.770	16.373	186.740	2.548	3.493	8.096	11.285	3.296	8192	-8191	8192	8192	254	
77690.898	1	1	0	0	4579.6	4800.3	4303.68	6.06848	3447.93	1611.09	537.744	5015.72	6737.95	7650.44	6533.88	56.6298	5020.53	2539.25	930.226	8748.17	189.415	16.657	187.541	1.056	3.862	7.224	11.056	3.224	8192	-8191	8192	8192	254	
77690.945	1	1	0	0	4598.98	4651.71	4260.73	8.20365	3521.5	1568.04	524.289	5067.18	6761.76	7595.51	6478.3	58.1587	5047.72	2571.53	910.067	8745.23	188.391	16.169	187.474	18.129	3.877	5.377	14.327	3.551	8192	-8191	8192	8192	254	
77691.000	1	1	0	0	4571.23	4737.43	4339.29	6.36195	3483.61	1631.46	527.584	5083.75	6709.49	7652.76	6536.98	55.6635	5043.83	2566.8	935.274	8742.92	187.537	16.449	187.849	347.018	3.376	7.755	9.790	2.873	8192	-8191	8192	8192	254	
77691.047	1	1	0	0	4687.06	4819.2	4252.16	4.46707	3467.71	1653.12	521.095	5071.21	6809.12	7681.72	6505.05	61.2212	5029.25	2592.28	928.827	8737.65	188.504	17.133	187.881	157.774	3.748	6.037	10.475	3.564	8192	-8191	8192	8192	254	
77691.094	1	1	0	0	4572.4	4750.98	4304.52	5.58776	3435.83	1597.26	505.582	5124.81	6735.91	7629.51	6546.39	56.476	4994.36	2578.59	914.495	8788.6	188.614	16.333	187.799	289.723	3.261	7.871	8.871	4.292	8192	-8191	8192	8192	254	
77691.164	1	1	0	0	4591.85	4811	4248.54	6.1054	3492.07	1637.96	527.182	4919.23	6720.16	7690.27	6516.19	56.2788	5046.64	2567.44	922.524	8681.73	188.371	17.317	187.577	25.743	2.849	7.526	7.872	3.857	8192	-8191	8192	8192	254	
77691.211	1	1	0	0	4617.24	4730.56	4324.27	3.01553	3533.92	1610.88	538.279	5003.54	6756.21	7650.38	6559.15	53.5433	5051.13	2580.54	912.418	8700.89	188.018	16.019	187.268	328.585	3.856	8.132	10.504	3.555	8192	-8191	8192	8192	254	
77691.266	1	1	0	0	4565.27	4796.19	4229.13	7.47322	3456.8	1613.99	530.356	4964.92	6748.26	7692.45	6468.22	56.6875	5006.41	2561.82	921.389	8645.17	189.018	15.773	187.719	34.446	3.598	8.129	12.056	3.842	8192	-8191	8192	8192	254	
77691.312	1	1	0	0	4677.94	4728.15	4337.14	10.2758	3478.7	1620.03	530.016	5054.19	6783.77	7631.28	6587.55	57.6827	5014.67	2573.35	917.712	8750.66	188.977	16.944	187.109	34.479	4.102	7.050	11.588	3.498	8192	-8191	8192	8192	254	
77691.312	1	1	0	0	4608.56	4729.67	4298.14	12.5545	3436.75	1605.9	510.084	5043.88	6782.51	7659.2	6547.76	55.851	5011.88	2547.34	924.221	8771.33	188.077	16.739	186.944	347.369	3.439	8.670	11.468	4.057	8192	-8191	8192	8192	254	
77691.359	1	1	0	0	4596.39	4792.61	4295.86	7.68408	3471.53	1623.79	556.115	5155.58	6790.71	7695.15	6516.5	53.7885	5050.4	2573.86	931.471	8798.85	187.478	16.441	188.103	5.225	4.140	6.894	9.069	3.946	8192	-8191	8192	8192	254	
77691.430	1	1	0	0	4519.29	4751.09	4300.64	5.41656	3483.67	1675.21	519.729	4996.47	6737.3	7656.17	6513.94	53.3269	5027.11	2628.44	929.606	8699.92	188.295	16.722	187.026	35.141	3.671	6.944	9.655	4.077	8192	-8191	8192	8192	254	
77691.477	1	1	0	0	4551.43	4703.72	4287.96	4.94509	3438.76	1660.42	519.204	4986.56	6762.98	7632.6	6517.06	56.3365	5005.02	2596.03	921.678	8711.23	188.333	16.815	186.833	178.902	3.110	6.973	10.629	4.697	8192	-8191	8192	8192	254	
77691.523	1	1	0	0	4532.68	4717.96	4316.09	16.4273	3462.11	1629.77	501.279	5053.77	6742.1	7642.69	6570.58	52.4471	5023.41	2580.59	919.361	8688.77	188.347	17.220	186.668	0.910	3.769	6.797	9.991	3.758	8192	-8191	8192	8192	254	
77691.570	1	1	0	0	4614.83	4758.45	4355.68	6.28527	3470.6	1592.99	532.962	5047.11	6763.76	7634.2	6556.3	56.7788	5034.74	2573.25	923.236	8719.85	188.201	16.761	188.047	15.603	3.531	6.592	10.745	4.689	8192	-8191	8192	8192	254	
77691.625	1	1	0	0	4590.28	4685.98	4281.96	1.93055	3447.21	1628.1	519.817	5047.54	6742.51	7663.88	6568.23	53.0913	4974.69	2575.09	909.149	8712.74	188.480	15.665	187.598	29.955	3.522	6.705	10.241	3.600	8192	-8191	8192	8192	254	
77691.672	1	1	0	0	4560.38	4758.28	4322.16	1.30535	3504.01	1638.27	518.851	5016.39	6731.76	7650.75	6581.39	56.9135	5038.38	2592.97	910.625	8724	188.078	16.175	187.365	89.871	3.320	8.031	10.963	3.450	8192	-8191	8192	8192	254	
77691.719	1	1	0	0	4522.53	4689.17	4294.38	14.6659	3417.75	1637.8	514.421	4971	6688.32	7652.67	6509.24	56.9856	5025.64	2556.05	919.389	8704.09	188.093	16.638	188.145	355.956	4.034	7.005	12.875	4.326	8192	-8191	8192	8192	254	
77691.766	1	1	0	0	4550.14	4696.6	4290.15	6.49625	3454.1	1624.68	525.69	5046.52	6753.72	7677.12	6526.5	53.375	4989.34	2570.62	927.351	8708.51	188.386	16.625	186.369	49.265	2.507	6.735	10.302	3.568	8192	-8191	8192	8192	254	
77691.836	1	1	0	0	4510.1	4829.84	4249.82	13.2796	3505.64	1594.43	518.78	5094.82	6721.83	7699.93	6508.71	52.9038	5036.2	2590.15	918.779	8718.23	187.964	15.496	187.029	0.845	3.707	7.851	9.534	3.243	8192	-8191	8192	8192	254	
77691.883	1	1	0	0	4510.08	4742.81	4277.58	8.90959	3573.74	1607.68	529.061	4961.8	6708.5	7668.13	6522.53	56.9135	5105.48	2555.23	927.51	8709.05	188.416	16.834	186.944	57.687	3.496	6.868	11.546	3.870	8192	-8191	8192	8192	254	
77691.930	1	1	0	0	4572.38	4816.38	4319.5	10.8914	3445.06	1660.37	511.58	4954.44	6755.19	7686.55	6533.36	53.1731	5028.17	2615.76	901.25	8633.78	188.880	16.033	187.142	36.670	3.760	7.132	11.155	4.151	8192	-8191	8192	8192	254	
77691.984	1	1	0	0	4584.3	4796.67	4331.93	9.60436	3544.64	1649.76	531.847	5071.09	6722	7675.19	6537.89	52.9087	5069.5	2610.78	941.332	8737.78	188.483	16.894	186.782	20.513	4.113	6.212	7.310	4.092	8192	-8191	8192	8192	254	
77692.031	1	1	0	0	4555.51	4684.35	4344.59	5.01941	3398.91	1652.93	549.799	5020.46	6718.43	7679.63	6543.23	54.9808	4957.92	2606.83	930.308	8730.15	188.264	16.329	187.443	45.235	3.662	6.850	12.640	3.862	8192	-8191	8192	8192	254	
77692.078	1	1	0	0	4565.25	4762.67	4351.8	6.16499	3435	1609.74	516.644	5057.31	6777.89	7680.23	6557.66	52.3029	5030.26	2585.85	911.486	8764.08	188.160	16.480	186.570	22.425	3.997	7.744	10.169	3.953	8192	-8191	8192	8192	254	
77692.078	1	1	0	0	4527	4786.87	4295.97	7.61805	3492.48	1657.89	541.518	4954.7	6724.79	7703.01	6513.57	57.9567	5037.94	2584.75	936.957	8716.31	188.715	16.366	187.135	352.308	3.412	6.459	9.467	4.396	8192	-8191	8192	8192	254	
77692.125	1	1	0	0	4608.18	4759.2	4286.54	4.32951	3501.45	1609.23	541.715	4990.92	6789.39	7666.8	6538.75	53.6154	5008.75	2560.08	928.197	8723.55	188.611	16.286	188.210	358.126	3.179	6.778	10.610	3.623	8192	-8191	8192	8192	254	
77692.195	1	1	0	0	4541.52	4774.57	4257.91	5.55468	3526.61	1595	524.617	5062.29	6746.31	7660.55	6551.68	54.7067	5063.3	2577.09	920.952	8774.93	188.281	16.758	187.577	70.918	2.724	7.684	11.764	4.212	8192	-8191	8192	8192	254	
77692.242	1	1	0	0	4570.34	4767.31	4304.26	11.2578	3442.02	1588.46	525.12	5023.32	6711.29	7711.93	6569.72	59.149	5007.52	2557.25	927.995	8710.45	189.405	16.390	187.252	356.288	3.483	8.008	11.195	4.578	8192	-8191	8192	8192	254	
77692.297	1	1	0	0	4590.55	4694.12	4249.03	5.77887	3463.1	1618.28	523.731	5044.56	6740.23	7630.47	6527.4	58.1442	5023.12	2581.97	928.827	8712.36	188.297	17.506	187.678	332.914	3.714	7.263	9.101	3.772	8192	-8191	8192	8192	254	
77692.344	1	1	0	0	4571.23	4723.35	4324.22	5.72685	3459.78	1667.46	505.227	5017.78	6719.53	7652.52	6566.07	53.3077	5041.32	2604.87	905.74	8783.02	187.678	16.694	186.838	24.990	3.885	7.142	10.415	4.045	8192	-8191	8192	8192	254	
77692.391	1	1	0	0	4560.79	4751.44	4381.31	1.84384	3446.08	1626.77	548.627	5033.39	6723.61	7668.8	6543.83	53.5817	5004.44	2589.11	932.101	8712.38	189.197	16.298	186.737	88.459	3.620	6.285	11.448	4.176	8192	-8191	8192	8192	254	
77692.438	1	1	0	0	4559.99	4779.31	4227.84	9.0469	3475.77	1599.28	538.795	5053.44	6729.75	7657.26	6501.26	57.9952	5028.76	2583.41	925.317	8689.1	187.787	16.641	187.075	10.863	3.863	7.119	9.916	3.759	8192	-8191	8192	8192	254	
77692.484	1	1	0	0	4539.02	4754.5	4305.37	10.2879	3511.43	1623.83	524.394	5070.14	6735.28	7645.27	6531.02	54.6683	5037.11	2583.55	935.87	8732.72	187.733	16.089	186.660	22.006	4.117	7.047	8.624	4.314	8192	-8191	8192	8192	254	
77692.531	1	1	0	0	4653.01	4805.92	4308.29	4.31474	3444.14	1652.6	500.953	5107.21	6786.47	7700.66	6531.85	58.1538	5001.97	2619.63	925.197	8697.23	187.983	16.821	186.859	54.499	3.512	7.833	9.291	3.840	8192	-8191	8192	8192	254	
77692.609	1	1	2	0	4642.57	4793.23	4247.14	4.21578	3462.62	1600.31	499.473	5019.52	6790.39	7719.43	6512.5	55.375	5003.12	2555.85	915.308	8739.06	188.007	16.219	187.683	55.213	3.909	7.204	10.718	3.883	8192	-8191	8192	8192	254	
77692.656	1	1	0	0	4535.17	4760.61	4317.47	4.05667	3490.85	1623.14	532.437	5102.22	6708.54	7636.14	6575.77	56.9135	5031.76	2540.57	911.115	8783.78	188.067	16.082	188.330	69.222	3.237	6.455	8.754	3.105	8192	-8191	8192	8192	254	
77692.703	1	1	0	0	4520.91	4778.43	4306.03	6.95219	3450.74	1583.5	537.003	5066.01	6721.09	7698.87	6519.6	54.1635	5020.4	2540.9	934.298	8798.75	188.287	17.186	187.866	29.586	2.910	7.442	11.639	3.791	8192	-8191	8192	8192	254	
77692.750	1	1	0	0	4589.04	4813.69	4330.85	10.6032	3456.91	1640.35	516.974	5063.3	6721	7677.23	6538.61	53.6154	5007.94	2592.63	924.875	8761.31	187.928	16.619	187.976	1.009	3.619	5.512	10.073	3.552	8192	-8191	8192	8192	254	
77692.797	1	1	0	0	4590.06	4840.89	4263.05	4.62098	3468.59	1622.8	528.907	5035.13	6762.01	7685.97	6521.59	54.8942	5022.3	2572.82	934.534	8758.1	188.121	16.980	187.325	13.526	3.583	7.573	11.312	3.371	8192	-8191	8192	8192	254	
77692.844	1	1	0	0	4609.75	4731.18	4324.23	7.1945	3457.12	1625.04	512.723	5064.69	6723.37	7658.61	6544.65	54.9615	4995.69	2584.62	926.375	8754.85	188.315	17.111	187.729	351.387	3.962	7.803	11.078	3.913	8192	-8191	8192	8192	254	
77692.844	1	1	0	0	4631.81	4732.1	4248.86	10.9683	3483.17	1635.83	532.173	5020.52	6771.77	7620.37	6517.26	55.5481	5040.16	2611.84	932.582	8734.63	188.122	16.599	187.183	7.059	3.843	6.495	9.202	3.872	8192	-8191	8192	8192	254	
77692.891	1	1	0	0	4609.41	4820.83	4327.62	9.72844	3475.81	1620.31	505.476	5016.38	6777.36	7679.58	6557.06	67.3558	5047.05	2584.99	930.457	8770.54	188.667	16.760	186.699	17.417	2.884	7.341	10.398	3.372	8192	-8191	8192	8192	254	
77692.969	1	1	0	0	4606.41	4750.77	4308.21	9.32483	3439.95	1642.09	531.956	5046.99	6740.54	7734.82	6572.84	78.9231	5054.87	2614.9	962.764	8748.05	188.549	16.869	186.488	25.376	4.056	7.219	10.254	3.383	8192	-8191	8192	8192	254	
77693.016	1	1	0	0	4574.46	4719.94	4225.03	1.55611	3460.95	1592.84	513.659	5037.14	6786.01	7688.48	6532.69	95.2452	5056.42	2581.17	943.418	8750.43	188.124	16.912	187.666	333.689	4.128	7.887	10.706	3.998	8192	-8191	8192	8192	254	
77693.062	1	1	0	0	4572.93	4750.06	4309.19	8.83427	3467.93	1664.94	530.023	5035.46	6837.38	7790.55	6630.46	127.409	5080.36	2705.4	1049.27	8861.53	188.290	16.988	188.083	28.709	2.904	7.257	12.241	3.039	8192	-8191	8192	8192	254	
77693.109	1	1	0	0	4571.01	4678.7	4266.54	10.9409	3492.75	1646.79	536.971	4970.85	6871.28	7767.83	6630.35	164.144	5165.57	2708.78	1029.77	8797.28	188.079	16.474	186.582	321.499	3.274	6.358	10.463	4.681	8192	-8191	8192	8192	254	
77693.156	1	1	0	0	4608.61	4780.13	4269.61	3.18253	3408.01	1671.81	542.629	5002.77	6895.57	7828.63	6623.53	151.178	5098.25	2696.21	1004.64	8788.16	188.434	17.386	187.430	219.045	3.544	7.029	10.367	3.823	8192	-8191	8192	8192	254	
77693.203	1	1	0	0	4592.87	4794.09	4365.52	3.76913	3485.8	1610.23	520.98	5056.47	6826.57	7738.72	6615.32	98.1731	5081.8	2585.58	949.822	8808.44	188.770	16.151	187.313	17.379	3.230	6.752	10.077	4.703	8192	-8191	8192	8192	254	
77693.258	1	1	0	0	4513.85	4716.57	4255.86	6.73749	3439.68	1638.95	500.579	5071.79	6761.3	7693.7	6569.45	83.3317	5009.34	2602.15	918.202	8780.89	187.965	16.728	187.663	46.383	2.846	6.850	11.051	3.724	8192	-8191	8192	8192	254	
77693.305	1	1	0	0	4606.22	4834.74	4320.03	4.76414	3471.61	1620.84	531.236	5065.57	6752.93	7739.36	6556.18	76.1202	5010.53	2574.68	945.413	8810.42	188.218	17.196	186.976	61.808	3.384	5.692	8.736	3.898	8192	-8191	8192	8192	254	
77693.352	1	1	0	0	4552.16	4821.63	4293.78	7.00865	3475.5	1639.63	527.073	5081.46	6732.32	7737.21	6572.49	71.1202	5064	2611.33	951.327	8819.56	188.298	15.952	187.580	40.759	3.967	6.552	11.560	3.147	8192	-8191	8192	8192	254	
77693.398	1	1	0	0	4573.74	4720.51	4299.04	13.7198	3470.47	1656.81	538.154	5070.07	6732.66	7682.14	6544.72	78.9808	5069.82	2597.68	956.529	8780.16	188.640	17.034	187.161	25.286	3.442	7.917	11.656	3.954	8192	-8191	8192	8192	254	
77693.469	1	1	0	0	4627.69	4722.33	4281.32	11.0716	3503.08	1650.76	516.385	5003.78	6787.59	7720.95	6552.14	94.8798	5082.6	2647.03	965.591	8766.12	188.701	16.916	186.707	26.503	2.572	7.815	10.115	4.534	8192	-8191	8192	8192	254	
77693.516	1	1	0	0	4603.95	4744.17	4335.36	3.24944	3488.06	1622.17	544.06	4998.27	6833.77	7699.12	6581.25	117.452	5063.81	2614.23	1004.16	8822.4	188.962	15.654	187.974	170.589	3.802	6.730	10.937	3.465	8192	-8191	8192	8192	254	
77693.562	1	1	0	0	4555.71	4731.69	4331.43	3.83212	3396.98	1626.58	556.248	5006.57	6792.88	7789.93	6659.35	162.534	5126.93	2705.09	1064.8	8805.48	188.571	16.108	186.581	23.759	3.443	7.283	9.244	4.463	8192	-8191	8192	8192	254	
77693.609	1	1	0	0	4503.59	4752.33	4221.38	17.8806	3497.16	1652.45	507.073	4930.51	6896.37	7847.19	6636.57	227.904	5228.63	2772.45	1107.24	8864.99	188.295	16.403	187.235	347.860	3.899	7.691	12.364	4.515	8192	-8191	8192	8192	254	
77693.617	1	1	0	0	4614.13	4762.91	4309.15	5.6987	3455.66	1608.64	559.706	5059.12	6983.11	7881.16	6758.87	279.923	5250.34	2792.19	1197.12	9024.34	188.312	16.926	186.827	18.714	4.094	7.315	10.219	3.520	8192	-8191	8192	8192	254	
77693.664	1	1	0	0	4584.62	4775.75	4281.44	17.4198	3455.87	1627.03	535.597	5016.96	7014.02	7975.62	6813.92	347.755	5295.1	2890.07	1220.2	8995.3	188.889	16.721	186.695	359.677	4.640	7.062	8.365	4.114	8192	-8191	8192	8192	254	
77693.711	1	1	0	0	4632.19	4734	4271.52	30.0941	3454.74	1640.95	512.321	4975.83	7116.55	8017.73	6818.16	388.5	5345.51	2940.11	1274.03	9071.13	188.251	16.549	187.545	57.176	3.734	7.881	10.795	3.489	8192	-8191	8192	8192	254	
77693.758	1	1	0	0	4512.78	4802.49	4398.88	4.91874	3503.59	1583.55	535.117	5068.89	7090.9	8031.65	6933.27	410.529	5393.37	2883.84	1256.13	9116.02	187.859	16.059	187.190	330.151	3.632	6.394	10.489	4.465	8192	-8191	8192	8192	254	
77693.828	1	1	0	0	4582.29	4733.43	4246.59	1.95722	3425.47	1628.75	526.317	5080.79	7081	7985.79	6827.25	409.428	5334.9	2904.78	1276.93	9092.13	188.816	16.973	187.765	41.337	4.332	7.584	8.469	4.696	8192	-8191	8192	8192	254	
77693.875	1	1	0	0	4589.87	4767.06	4351.77	13.91	3444.65	1615.83	526.442	5083.74	7130.72	8017.76	6901.91	412.385	5356.09	2918.53	1261.52	9134.41	188.801	16.528	187.162	22.363	2.801	6.812	9.528	4.705	8192	-8191	8192	8192	254	
77693.922	1	1	0	0	4507.94	4762.51	4313.27	12.1025	3496.3	1608.08	526.113	4878.06	7058.55	8044.58	6876.29	414.913	5410.21	2928.35	1293.07	8884.41	188.524	16.209	187.213	7.002	2.542	6.890	11.539	4.242	8192	-8191	8192	8192	254	
77693.977	1	1	0	0	4370.86	4611.41	4177.99	17.1466	3426.61	1543.01	484.315	4886.92	6889.48	7785.54	6712.91	425.202	5275.55	2845.87	1247.73	8788.52	188.312	16.320	187.251	268.536	4.294	5.835	6.958	3.478	8192	-8191	8192	8192	254	
77694.023	1	1	0	0	4476.27	4655.5	4238.18	5.39201	3319.63	1595.21	511.418	4674.99	6956.58	7874.11	6753.78	423.889	5191.35	2869.71	1275.67	8475.97	188.097	17.020	188.378	205.989	3.550	7.639	7.150	3.349	8192	-8191	8192	8192	254	
77694.070	1	1	0	0	3872.58	3106.76	1805.48	16.0381	319.278	66.7168	7.51829	40.4371	6023.19	5318.02	2996.51	197.462	593.841	226.913	147.933	180.418	188.564	16.206	187.327	284.786	357.807	11.277	145.582	347.674	8192	-8191	8192	8192	254	
77694.141	1	1	0	0	4.7045	9.1555	4.42379	6.65497	8.68476	2.02399	8.50991	0.421443	133.466	127.649	127.986	148.788	187.899	253.269	373.591	565.644	193.003	323.410	43.259	185.967	46.475	351.950	16.797	127.487	8192	-8191	8192	8192	254	
77694.188	1	1	0	0	19.0683	10.6527	40.9238	9.07665	21.2563	13.2092	9.01785	10.3397	794.25	1080.5	1336.06	1475.95	1417.74	1173.75	908.726	691.25	164.752	160.706	117.839	280.881	231.933	9.780	47.529	289.439	8192	-8191	8192	8192	254	
77694.234	1	1	0	65536	11.8328	14.1267	16.8401	22.28	18.3251	45.2328	44.3294	81.3991	603.611	571.649	677.144	1101.53	2898.79	6224.92	3662.04	10676.1	174.778	317.042	101.836	47.000	101.448	290.554	94.521	99.153	8192	-8191	8192	8192	254	
77694.289	1	1	0	65536	297.643	0	0	0	0	0	0	0	16751.2	32767	32767	32767	32767	32767	32767	32767	108.541	180.000	180.000	180.000	180.000	180.000	180.000	180.000	8192	-8191	8192	8192	254	
77694.336	1	1	0	65536	0	15.9912	45.1854	130.323	130.104	146.233	80.2891	83.2572	32767	32746.6	32371.2	31368	30433.4	29634	28853.9	28048.1	180.000	355.138	38.929	324.401	193.683	147.555	0.776	64.229	8192	-8191	8192	8192	254	
77694.383	1	1	0	65536	167.572	111.971	58.305	91.7927	78.4279	124.046	90.3757	68.616	27544.3	27202.8	27180.8	28021.9	29188	30131.2	31353.2	31921.6	336.726	248.282	160.433	238.836	196.205	10.564	77.173	313.882	8192	-8191	8192	8192	254	
77694.383	1	1	0	65536	100.739	74.7328	73.7188	120.303	221.424	44.3526	131.995	24.4999	31558.2	30282.5	28772.7	27150.5	25140	22720.3	14883.4	4764.4	239.197	263.533	250.807	353.764	336.549	187.579	270.423	163.826	8192	-8191	8192	8192	254	
77694.430	1	1	0	65536	15.5396	23.0553	29.6892	37.4075	30.1962	19.814	18.5656	2.73932	1979.55	1867.28	1741.98	1549.03	1496.67	1494.42	1476.17	1451.15	159.157	351.646	291.164	167.678	8.877	50.452	135.216	197.003	8192	-8191	8192	8192	254	
77694.500	1	1	0	0	11.0239	5.84578	12.818	20.3504	6.64818	6.94803	50.4587	7.89697	1456.24	1461.05	1431.81	1464.43	1457.15	1469.42	1537.08	1550.87	225.964	202.161	326.011	188.335	289.899	69.844	198.835	54.297	8192	-8191	8192	8192	254	
77694.547	1	1	0	0	14.7258	39.1794	17.2692	19.5061	36.2808	21.0202	6.5896	11.1679	1591.52	1592.42	1620.1	1587.14	1580.56	1590.53	1596.92	1559.74	294.015	256.198	261.941	166.362	66.682	58.931	351.623	322.711	8192	-8191	8192	8192	254	
77694.602	1	1	0	0	40.8447	22.5093	51.9807	6.42339	25.0822	15.25	14.1841	3.12338	1544.6	1546.43	1538.65	1543.21	1559.77	1529.48	1556.01	1586.96	310.229	168.919	25.373	62.244	150.604	77.288	177.679	156.752	8192	-8191	8192	8192	254	
77694.648	1	1	0	0	45.821	25.5193	71.9543	42.2154	34.8083	23.6548	7.88533	11.386	1623.91	1664.05	1723.39	6500.24	3753.48	1841.61	1070.31	781.697	277.658	17.803	130.825	319.598	30.801	23.014	330.603	198.943	8192	-8191	8192	8192	254	
77694.695	1	1	0	0	23.7368	9.87732	2.73922	5.26841	2.90035	10.1572	13.4173	8.42625	624.029	531.481	468.12	438.317	424.548	408.269	390.077	366.812	345.175	219.278	19.406	125.703	327.441	146.831	257.659	286.863	8192	-8191	8192	8192	254	
77694.742	1	1	0	0	15.6072	12.1442	11.7111	5.32539	10.2529	5.47786	5.08587	6.22051	343.221	311.639	271.913	236.327	192.976	153.889	147.361	148.793	189.311	210.152	104.578	251.713	333.125	317.693	321.018	35.467	8192	-8191	8192	8192	254	
77694.789	1	1	0	0	7.83603	11.4758	4.85161	10.3854	5.67281	7.14537	7.34705	4.28622	149.024	137.067	140.428	131.601	126.716	118.562	128.663	122.096	148.087	359.252	191.294	357.525	147.930	163.547	312.242	25.754	8192	-8191	8192	8192	254	
77694.836	1	1	0	0	1.50602	9.30358	8.69713	7.55564	2.59386	6.78819	5.21531	2.31499	117.899	112.389	117.043	110.529	108.625	105.572	109.139	106.365	21.602	251.868	25.509	75.024	350.879	25.158	221.999	331.169	8192	-8191	8192	8192	254	
77694.883	1	1	0	0	3.54053	6.96834	7.25156	5.90579	24.1785	46.2009	38.8894	824.567	106.442	108.774	115.38	114.346	156.538	208.365	284.337	1787.4	99.861	123.414	9.634	282.942	36.333	28.611	14.581	8.626	8192	-8191	8192	8192	254	
77694.938	1	1	0	0	973.061	1069.6	965.582	13.835	841.324	419.087	136.588	1209.98	1894.92	2203.82	1967.83	530.486	1692.92	1154.04	737.803	2602.9	193.013	23.876	194.765	358.612	11.139	17.003	22.553	9.104	8192	-8191	8192	8192	254	
77695.008	1	1	0	0	1009.58	1046.59	1006.73	18.1795	839.194	421.506	129.611	1247.01	2037.04	2228.82	1991.21	512.361	1703.55	1148.26	717.659	2671.46	194.862	23.601	192.963	31.998	8.373	14.811	16.230	9.112	8192	-8191	8192	8192	254	
77695.055	1	1	0	0	1103.25	1086.71	1010.52	15.8086	888.296	418.355	132.61	1298.19	2087.58	2253.61	2006.95	475.538	1718.85	1104.24	682.841	2713.32	196.649	23.938	193.115	138.381	8.989	10.523	14.600	9.087	8192	-8191	8192	8192	254	
77695.102	1	1	0	0	1113.31	1142.36	1025.09	14.9637	902.632	432.2	137.959	1334.5	2086.41	2275.35	1970.57	414.269	1689.82	1074.78	613.846	2701.76	194.359	22.080	193.161	144.747	9.201	14.611	15.527	8.601	8192	-8191	8192	8192	254	
77695.148	1	1	0	0	1171.73	1161.54	1060.59	15.3506	925.839	457.158	132.925	1348.19	2064.46	2251.41	1971.14	341.788	1630.62	1013.51	554.654	2625.52	193.850	23.142	193.533	41.441	9.180	12.652	12.846	6.992	8192	-8191	8192	8192	254	
77695.148	1	1	0	0	1136	1146.59	1091.82	7.17872	892.306	425.256	114.444	1277.71	1973	2160.01	1897.74	260.399	1525.15	896.067	439.587	2425.62	195.149	23.043	194.561	120.651	8.152	14.154	25.673	10.205	8192	-8191	8192	8192	254	
77695.195	1	1	0	0	1085.14	1097.1	962.17	7.44063	799.367	410.308	138.758	1114.39	1787.6	1942.11	1693.5	185.442	1336.08	787.375	379.476	2156.19	193.632	23.333	194.212	275.707	10.325	13.092	12.848	9.700	8192	-8191	8192	8192	254	
77695.242	1	1	0	0	973.805	985.476	916.524	8.92565	746.201	378.885	114.85	1194.9	1581.2	1729.55	1524.04	131.779	1207.74	702.75	311.346	2118.68	195.208	23.003	194.442	195.552	7.358	13.516	14.731	10.523	8192	-8191	8192	8192	254	
77695.297	1	1	0	0	970.593	1009.78	885.723	10.8419	784.013	368.526	125.441	1095.6	1512.25	1664.37	1429.78	100.817	1201.2	660.38	290.149	2033.14	194.473	22.686	193.207	108.011	10.318	12.772	15.771	10.630	8192	-8191	8192	8192	254	
77695.367	1	1	0	0	931.138	973.186	887.497	8.0664	749.312	372.043	132.057	1135.18	1465.96	1628.41	1395.24	70.7404	1159.75	633.293	274.87	2023.11	195.031	21.184	192.680	105.044	9.870	12.617	16.020	8.206	8192	-8191	8192	8192	254	
77695.414	1	1	0	0	946.631	979.797	879.272	9.57107	773.23	371.507	113.398	1169.96	1455.92	1628.4	1410.14	72.3269	1159.96	653.548	270.606	2050.96	194.903	22.856	192.375	54.750	10.344	11.662	22.389	9.560	8192	-8191	8192	8192	254	
77695.461	1	1	0	0	970.421	967.93	862.253	4.00833	742.051	379.991	135.488	1109.15	1488.94	1617.75	1417.74	84.5385	1170.56	687.413	321.803	2084.18	194.791	20.608	195.331	11.887	7.261	13.396	10.870	8.425	8192	-8191	8192	8192	254	
77695.508	1	1	0	0	964.927	982.845	849.173	5.25973	747.079	385.662	106.535	1128.6	1533.66	1697.12	1476.18	141.808	1233.69	730.317	330.913	2131.53	194.675	22.221	193.932	168.900	8.505	14.334	10.029	8.918	8192	-8191	8192	8192	254	
77695.555	1	1	0	0	965.252	926.682	876.997	3.05364	777.269	366.686	121.909	1115.53	1545.93	1688.9	1504.93	159.808	1240.37	706.644	342.803	2105.86	193.530	21.611	193.304	306.036	8.702	12.421	15.415	8.886	8192	-8191	8192	8192	254	
77695.602	1	1	0	0	940.156	942.654	903.126	7.20553	745.069	337.799	107.43	1131.84	1515.16	1669.77	1484.41	131.558	1210.2	686.548	314.952	2079.07	195.050	22.111	193.986	276.559	9.655	10.740	20.752	9.625	8192	-8191	8192	8192	254	
77695.656	1	1	0	0	953.516	967.464	905.769	9.67476	762.729	372.725	120.326	1122.07	1522.75	1669.54	1480.63	121.26	1201.37	684.764	314.966	2068.53	195.016	24.657	192.987	11.356	9.204	12.679	21.597	9.151	8192	-8191	8192	8192	254	
77695.703	1	1	0	0	943.182	936.483	877.416	3.79587	779.268	377.525	125.274	1135.05	1490.52	1625.9	1451.73	96.2404	1183.98	660.087	279.188	2007.48	194.355	22.925	192.440	0.184	11.165	14.101	11.403	8.442	8192	-8191	8192	8192	254	
77695.773	1	1	0	0	943.226	948.222	848.479	5.29511	771.373	338.526	109.642	1119.27	1441.78	1602.63	1384.5	64.0337	1160.65	609.159	256.413	1990.36	192.799	23.128	194.082	336.905	8.179	13.129	17.384	9.906	8192	-8191	8192	8192	254	
77695.820	1	1	0	0	978.67	962.541	889.187	5.14776	733.72	372.018	117.622	1130.11	1463.81	1600.21	1388.67	54.601	1121.99	603.87	247.947	2017.63	194.116	25.188	193.103	224.107	8.147	11.609	13.413	7.720	8192	-8191	8192	8192	254	
77695.867	1	1	0	0	949.264	943.329	870.982	5.44785	767.67	371.173	118.177	1139.1	1423.22	1581.56	1383.14	45.3413	1124.49	618.534	239.966	1999.43	193.653	23.099	193.254	50.674	9.406	12.428	13.405	9.433	8192	-8191	8192	8192	254	
77695.922	1	1	0	0	934.44	950.357	861.596	3.54012	742.678	350.369	125.55	1095.09	1414.34	1581.98	1354.92	40.8798	1110.57	609.923	242.918	1980.47	193.744	23.434	192.312	43.094	8.478	10.243	16.506	9.364	8192	-8191	8192	8192	254	
77695.922	1	1	0	0	933.827	949.487	852.909	4.45973	745.391	366.852	116.867	1144.44	1421.96	1576.12	1360.92	43.8029	1110.82	613.231	243.202	1989.99	194.495	22.725	192.807	71.802	7.380	11.023	14.184	6.640	8192	-8191	8192	8192	254	
77695.969	1	1	0	0	910.43	941.917	895.469	3.31919	748.432	345.976	112.163	1140.46	1407.1	1575.35	1373.64	45.2067	1114.99	606.188	236.562	1989.91	195.318	23.567	192.432	310.656	7.394	17.843	13.016	10.420	8192	-8191	8192	8192	254	
77696.039	1	1	0	0	945.492	945.437	878.062	6.30937	767.675	373.466	116.417	1127.41	1430.78	1556.05	1376.56	41.4904	1120.88	611.721	243.413	1996.1	193.779	22.527	191.996	224.618	11.365	14.633	18.446	8.225	8192	-8191	8192	8192	254	
77696.086	1	1	0	0	938.669	932.763	891.584	5.95029	748.276	384.206	107.127	1119.05	1429.69	1562.98	1371.02	43.6202	1123.97	617.303	232.115	1979.03	194.385	22.615	193.040	69.208	9.159	13.359	13.911	10.353	8192	-8191	8192	8192	254	
77696.133	1	1	0	0	956.175	994.514	884.014	4.21931	761.371	370.674	109.902	1127.22	1408.73	1587.94	1368.42	41.476	1113.34	616.442	237.784	1983.34	192.447	21.734	192.578	329.209	8.887	11.311	9.347	9.186	8192	-8191	8192	8192	254	
77696.180	1	1	0	0	977.172	963.185	918.796	7.0084	740.2	384.852	133.226	1153.61	1431.44	1587.53	1399.16	40.6731	1137.65	629.668	247.183	1988.26	193.202	23.452	191.780	269.058	10.496	10.665	17.798	10.273	8192	-8191	8192	8192	254	
77696.227	1	1	0	0	940.858	954.116	882.112	4.81704	755.839	358.362	111.308	1102.54	1429.92	1577.65	1369.49	44.9231	1120.29	611.519	238.683	1967.73	193.801	22.708	195.227	157.933	8.930	15.649	21.228	9.476	8192	-8191	8192	8192	254	
77696.273	1	1	0	0	944.29	953.951	884.48	1.24422	720.614	375.176	118.753	1128.26	1411	1576.64	1370.15	42.6683	1105.33	617.986	240.24	1991.36	195.182	23.013	191.863	6.359	7.198	13.268	15.669	10.804	8192	-8191	8192	8192	254	
77696.328	1	1	0	0	960.309	948.552	896.707	3.09542	754.401	368.235	113.801	1138.19	1443.41	1557.61	1380.83	39.9423	1109.22	614.587	240.88	1996.8	195.098	22.979	192.721	68.460	10.362	12.596	12.560	10.238	8192	-8191	8192	8192	254	
77696.375	1	1	0	0	960.878	968.32	872.659	2.42123	745.085	370.775	119.737	1156.72	1433.28	1588.89	1354.44	39.3798	1102.52	611.332	245.082	1983.18	194.725	23.793	190.548	1.447	7.736	14.474	10.497	8.757	8192	-8191	8192	8192	254	
77696.445	1	1	0	0	941.947	940.367	901.554	4.9457	745.464	366.567	120.303	1154	1396.89	1564	1374.8	42.0625	1099.99	608.433	241.005	1982.18	195.032	24.057	191.175	231.466	9.986	11.473	14.328	8.846	8192	-8191	8192	8192	254	
77696.492	1	1	0	0	889.913	943.519	888.526	4.70291	741.88	359.084	118.234	1130.29	1395.48	1537.16	1372.84	37.1827	1099.51	611.072	242.889	1989.38	193.858	22.974	191.988	118.003	8.942	12.436	14.429	8.980	8192	-8191	8192	8192	254	
77696.539	1	1	3	0	915.867	957.389	890.52	4.95384	747.19	346.409	130.632	1118.21	1395.57	1551.69	1358.89	44.274	1095.01	596.577	243.038	2006.95	193.318	23.624	193.548	259.452	8.270	13.284	8.468	9.113	8192	-8191	8192	8192	254	
77696.594	1	1	0	0	930.59	948.47	841.527	3.77169	746.001	357.634	115.071	1095.71	1423.29	1575.93	1337.74	41.976	1102.9	603.663	232.106	1973.97	195.565	23.347	192.451	24.897	10.891	11.560	14.435	8.976	8192	-8191	8192	8192	254	
77696.641	1	1	0	0	927.461	937.905	845.233	6.72457	770.288	361.153	105.215	1158.29	1410.69	1556.59	1344.95	42.7019	1133.62	612.163	237.365	1999.69	194.625	23.244	192.397	87.315	8.648	12.424	18.413	9.712	8192	-8191	8192	8192	254	
77696.688	1	1	0	0	928.272	947.769	892.885	3.26193	720.849	356.992	123.562	1149.2	1411.18	1554.15	1386.2	44.851	1113.95	600.197	249.428	1969.19	195.690	22.238	193.937	336.883	9.783	14.574	17.072	7.941	8192	-8191	8192	8192	254	
77696.688	1	1	0	0	916.578	943.655	905.102	5.58451	750.661	350.895	131.784	1142.66	1406.27	1566.16	1380.8	40.3317	1114.34	609.279	250.952	1993.69	194.063	22.255	193.293	327.678	11.467	13.990	14.204	9.763	8192	-8191	8192	8192	254	
77696.734	1	1	0	0	937.394	946.811	872.21	4.79568	758.839	387.94	126.716	1111.65	1406.5	1544.88	1363.19	43.6587	1116.92	624.731	232.043	1968.18	193.081	22.828	193.788	269.777	8.326	12.179	14.848	8.336	8192	-8191	8192	8192	254	
77696.781	1	1	0	0	959.738	945.188	895.795	4.50586	766.49	361.319	114.735	1134.8	1447.48	1559.42	1371.63	42.6202	1124.71	602.562	237.87	1986.74	193.425	22.863	193.111	348.290	9.567	14.822	21.253	8.800	8192	-8191	8192	8192	254	
77696.828	1	1	0	0	927.771	908.482	873.933	3.07484	723.382	356.179	117.909	1131.94	1390.54	1542.59	1368.58	42.4856	1089.89	605.447	235.971	1978.82	195.644	22.545	194.213	252.697	9.509	10.275	17.976	9.532	8192	-8191	8192	8192	254	
77696.898	1	1	0	0	947.411	944.631	907.609	1.82194	735.501	357.86	115.703	1117.5	1420.31	1540.96	1381.26	42.7837	1102.48	603.981	241.87	1975.28	193.178	24.062	193.198	67.590	8.391	13.778	8.017	9.147	8192	-8191	8192	8192	254	
77696.953	1	1	0	0	931.349	941.713	844.281	2.12034	720.607	368.338	107.522	1112.28	1416.21	1559.41	1351.94	46.5962	1089.46	603.976	230.798	1982.73	193.209	22.883	192.157	120.590	9.135	13.765	17.511	8.380	8192	-8191	8192	8192	254	
77697.000	1	1	0	0	941.779	937.03	866.301	6.32312	706.471	357.517	120.038	1114.2	1413.21	1546.48	1352.16	43.2788	1076.46	597.048	234.88	1975.87	193.070	23.111	192.614	224.922	9.188	13.143	21.352	7.705	8192	-8191	8192	8192	254	
77697.047	1	1	0	0	908.084	949.639	857.831	1.32438	747.921	350.771	116.478	1146.63	1392.99	1563.04	1353.24	46.9519	1095.36	601.827	237	1979.37	194.182	22.334	194.373	33.613	9.306	14.013	17.498	10.090	8192	-8191	8192	8192	254	
77697.094	1	1	0	0	939.864	948.721	865.45	1.65199	730.88	369.609	121.787	1163.13	1409.87	1547.76	1337.45	40.4135	1107.94	608.154	237.99	2013.07	193.978	23.437	191.372	303.317	8.677	11.740	12.088	9.335	8192	-8191	8192	8192	254	
77697.141	1	1	0	0	927.602	954.094	908.771	4.90012	734.542	362.03	126.801	1110.66	1416.57	1545.5	1398.35	41.1827	1119.32	604.37	245.433	1966.15	193.598	22.212	192.594	27.767	9.307	9.525	12.747	9.614	8192	-8191	8192	8192	254	
77697.188	1	1	0	0	922.514	977.061	861.994	4.69355	754.033	375.962	118.225	1116.34	1408.66	1571.25	1360.59	41.1442	1130.74	610.625	244.168	1961.85	195.183	22.695	193.124	155.643	9.307	14.908	14.219	9.685	8192	-8191	8192	8192	254	
77697.234	1	1	0	0	967.437	929.31	874.873	3.78159	735.075	378.101	121.324	1098.95	1421.69	1539.93	1325.77	47.8846	1101.89	608.072	242.413	1954.37	194.824	24.503	192.956	3.659	8.956	11.924	10.606	8.958	8192	-8191	8192	8192	254	
77697.312	1	1	0	0	938.116	944.288	882.798	1.49501	707.818	368.834	123.6	1109.73	1401.06	1568.73	1353.1	40.976	1104.19	589.904	242.115	1962.24	194.788	22.779	193.430	271.686	8.582	14.864	13.581	7.736	8192	-8191	8192	8192	254	
77697.359	1	1	0	0	915.039	967.475	880.845	6.86319	718.326	368.889	114.42	1145.05	1396.88	1568.46	1345.78	42.1394	1098.47	606.043	229.375	1970.29	195.200	23.672	192.475	65.627	10.493	12.163	13.890	9.816	8192	-8191	8192	8192	254	
77697.406	1	1	0	0	947.709	959.821	855.63	3.19413	748.248	363.585	108.296	1132.78	1415.73	1576.88	1342.3	41.0962	1105.67	603.312	226.481	1985.96	194.439	22.035	192.634	54.089	11.031	12.654	20.576	7.872	8192	-8191	8192	8192	254	
77697.453	1	1	0	0	947.044	900.557	851.807	2.34143	761.625	361.863	102.386	1108.13	1414.28	1533.47	1349.81	42.4423	1121.09	603.495	236.798	1965.38	193.434	22.959	191.610	6.977	8.542	14.432	21.908	8.646	8192	-8191	8192	8192	254	
77697.453	1	1	0	0	931.82	929.82	864.331	1.65392	750.346	370.643	118.314	1131.66	1412.52	1537.59	1354.99	43.0577	1099.9	605.486	238.245	1961.7	195.419	23.367	193.637	32.962	9.237	12.073	15.424	8.733	8192	-8191	8192	8192	254	
77697.500	1	1	0	0	973.86	921.185	902.54	5.86763	732.992	395.266	105.843	1091.7	1426.91	1546.32	1352.55	43.4712	1089.83	628.457	237.192	1953.5	194.916	23.010	193.125	53.528	9.555	11.278	19.422	8.966	8192	-8191	8192	8192	254	
77697.570	1	1	0	0	920.862	944.742	869.119	6.16412	756.9	375.138	118.096	1101.34	1400.69	1548.55	1356.69	42.4038	1126.86	608.865	246.058	1942.36	195.273	23.001	193.876	54.596	10.258	12.948	15.717	8.260	8192	-8191	8192	8192	254	
77697.617	1	1	0	0	952.39	961.64	874.56	7.28201	748.436	347.653	119.415	1135.98	1407.93	1557.4	1345.97	46.1106	1115	607.909	248.327	1966.66	194.463	23.263	193.924	63.460	8.846	12.386	18.800	8.385	8192	-8191	8192	8192	254	
77697.672	1	1	0	0	914.09	963.423	882.884	3.26043	738.577	356.573	128.794	1118.32	1396.76	1554.09	1354.93	45.274	1102.97	602.163	246.635	1969.13	193.549	22.986	192.512	123.830	9.287	14.486	15.154	8.088	8192	-8191	8192	8192	254	
77697.719	1	1	0	0	936.869	950.502	827.193	4.4751	715.37	350.574	123.124	1146.23	1419.82	1545.6	1328.47	46.0769	1074.78	596.317	251.106	1991.98	193.143	23.688	192.002	0.455	9.453	12.607	13.484	8.414	8192	-8191	8192	8192	254	
77697.766	1	1	0	0	906.498	937.997	878.565	6.36308	736.339	353.942	112.239	1134	1393.44	1529.12	1374.95	45.4615	1098.2	606.678	240.51	1993.83	195.422	24.142	192.927	46.671	10.799	15.298	22.473	6.973	8192	-8191	8192	8192	254	
77697.812	1	1	0	0	901.103	926.131	880.824	4.89295	735.637	369.641	121.484	1138.33	1380.91	1544.41	1382.81	47.6298	1103.21	625.981	238.197	2000.03	194.824	23.110	193.414	144.130	11.451	10.211	16.674	9.166	8192	-8191	8192	8192	254	
77697.859	1	1	0	0	923.109	956.145	875.908	1.80877	730.538	372.4	117.421	1103.37	1395.67	1567.3	1348.23	41.524	1100.53	610.567	242.053	1977.17	193.818	23.660	194.109	97.224	8.850	12.479	20.287	8.177	8192	-8191	8192	8192	254	
77697.906	1	1	0	0	931.841	963.869	889.034	2.09037	751.449	387.785	122.32	1098.35	1423.6	1566.17	1365.89	45.3894	1107.14	634.351	234.226	1961.08	193.780	23.746	191.459	20.961	8.575	13.377	16.266	9.875	8192	-8191	8192	8192	254	
77697.984	1	1	0	0	947.827	939.168	886.187	9.94822	741.176	374.804	123.189	1093.69	1402.99	1552.88	1366.62	43.9087	1109.77	616.596	247.596	1962.14	193.968	22.963	192.899	328.664	6.755	11.593	16.453	8.483	8192	-8191	8192	8192	254	
77698.031	1	1	0	0	960.143	929.638	873.759	2.36268	712.136	358.479	118.12	1147.46	1430.1	1555.14	1365.3	43.9135	1095.07	601.649	238.327	2012.1	192.828	22.076	191.919	347.699	8.007	15.098	10.579	7.988	8192	-8191	8192	8192	254	
77698.078	1	1	0	0	933.01	916.614	879.345	2.55207	729.955	365.354	109.651	1104.68	1412.4	1559.55	1366.31	45.5337	1102.76	612.942	227.649	1941.04	195.195	23.282	193.467	151.517	8.226	11.831	13.622	7.901	8192	-8191	8192	8192	254	
77698.125	1	1	0	0	904.05	999.118	863.02	2.09638	764.353	356.793	131.554	1089.22	1377.23	1590.68	1354.66	42.0144	1113.6	607.226	247.803	1950.96	194.756	21.444	192.262	33.326	11.375	13.680	18.417	8.814	8192	-8191	8192	8192	254	
77698.172	1	1	0	0	947.143	967.224	870.009	5.89361	744.569	379.178	113.487	1122.14	1419.42	1559.8	1345.22	45.4423	1107.05	620.976	237.183	1971.51	194.486	22.363	192.211	256.644	8.593	14.264	13.075	8.699	8192	-8191	8192	8192	254	
77698.219	1	1	0	0	946.278	955.107	849.909	3.64774	760.719	338.612	119.234	1101.9	1426.06	1568.6	1354.64	45.6971	1111.66	596.745	235.524	1977.12	195.614	22.954	191.267	53.730	10.888	12.859	14.170	9.227	8192	-8191	8192	8192	254	
77698.219	1	1	0	0	927.632	959.76	872.941	5.52024	762.89	353.238	110.986	1137.13	1400.06	1564.16	1346.54	45.8317	1122.43	591.625	230.673	1989.51	195.142	22.758	191.855	59.437	8.262	14.079	11.924	9.480	8192	-8191	8192	8192	254	
77698.266	1	1	0	0	963.293	945.024	847.42	2.65447	724.8	374.551	116.606	1170.03	1421.95	1551.83	1342.59	45.5721	1104.01	615.365	242.389	2019.27	194.428	23.722	193.445	247.677	9.016	13.700	18.271	8.127	8192	-8191	8192	8192	254	
77698.320	1	1	0	0	938.759	956.468	892.803	1.42247	748.986	357.802	120.109	1095.44	1410.89	1563.28	1349.5	48.0481	1117.2	611.553	239.774	1967.91	193.724	24.023	191.830	341.293	10.624	13.076	15.207	8.377	8192	-8191	8192	8192	254	
77698.367	1	1	0	0	918.982	926.975	876.164	1.60535	743.609	354.338	106.007	1102.77	1408.25	1554.51	1351.22	42.625	1117.96	603.596	231.433	1964.49	194.048	22.028	193.786	155.784	8.977	13.535	17.065	10.252	8192	-8191	8192	8192	254	
77698.438	1	1	0	0	931.131	984.073	901.136	4.72194	734.686	343.481	118.882	1126.62	1426.92	1589.62	1372.45	46.9615	1105.42	588.308	249.942	1978.62	195.068	23.256	192.723	149.962	7.207	12.660	9.720	8.421	8192	-8191	8192	8192	254	
77698.484	1	1	0	0	927.415	940.016	855.182	5.42709	762.024	350.85	104.396	1105.01	1410.12	1563.95	1341.83	44.1779	1118.56	606.562	228.236	1972.25	195.204	24.839	192.736	29.771	8.002	12.273	12.664	8.560	8192	-8191	8192	8192	254	
77698.531	1	1	0	0	953.256	981.619	887.413	7.47009	718.399	359.278	110.293	1112.5	1414.01	1576.37	1365.59	42.8173	1105.92	608.99	236.038	1964.75	195.174	23.905	191.644	76.677	9.973	11.626	16.922	8.515	8192	-8191	8192	8192	254	
77698.578	1	1	0	0	947.268	946.187	843.242	6.98159	761.954	352.094	123.935	1073.8	1399.14	1558.56	1346.49	48.6298	1112.87	603.606	235.688	1930.28	195.183	24.245	192.624	38.190	9.449	13.829	18.298	9.003	8192	-8191	8192	8192	254	
77698.633	1	1	0	0	945.215	935.128	871.471	6.34146	751.495	355.631	119.988	1140.5	1416.77	1533.75	1356.07	42.9856	1111.16	609.476	237.394	1979.06	193.155	23.499	192.777	351.042	8.319	11.496	15.973	8.679	8192	-8191	8192	8192	254	
77698.680	1	1	0	0	931.716	962.677	899.805	1.77631	750.097	366.735	131.411	1113.85	1414.57	1557.35	1367.81	46.0529	1111.13	611.356	243.832	1958.48	195.756	24.099	194.732	146.478	6.839	13.528	17.273	9.166	8192	-8191	8192	8192	254	
77698.727	1	1	0	0	936.065	974.783	881.095	3.12402	721.184	354.94	124.743	1117.37	1410.16	1578.19	1363.54	44.5529	1101.4	599.678	244.827	1976.52	195.165	20.697	194.524	143.273	8.624	17.686	11.779	8.596	8192	-8191	8192	8192	254	
77698.773	1	1	0	0	945.084	955.023	841.642	6.76748	738.077	374.59	112.601	1111.9	1403.59	1544.48	1345.08	50.3077	1102.92	613.808	241.303	1954.42	195.316	24.375	192.561	24.741	9.174	15.183	10.279	8.439	8192	-8191	8192	8192	254	
77698.844	1	1	0	0	966.834	943.52	878.221	4.64791	738.779	380.384	110.225	1124.56	1429.04	1552.82	1362.43	45.4519	1093.52	604.808	243.856	1970.62	194.521	22.965	192.809	330.157	8.434	14.346	20.532	8.968	8192	-8191	8192	8192	254	
77698.891	1	1	0	0	941.717	948.891	875.621	1.92845	742.346	354.025	115.338	1111.77	1400.92	1573.01	1375.27	42.5625	1108.94	614.048	243.154	1980.56	194.628	23.275	193.742	305.282	8.002	11.802	18.824	8.704	8192	-8191	8192	8192	254	
77698.938	1	1	0	0	931.016	959.658	829.922	3.35546	751.359	365.468	121.517	1153.32	1406.61	1572.62	1344.16	40.1202	1103.39	606.072	245.774	2016.14	195.678	23.576	193.760	302.259	10.520	12.716	16.613	10.762	8192	-8191	8192	8192	254	
77698.992	1	1	0	0	933.297	959.302	880.115	3.03086	751.457	359.898	117.364	1109.57	1399.74	1564.68	1356.71	43.0096	1127.03	602.192	238.067	1983.59	195.209	21.798	193.330	27.753	10.608	14.131	18.609	9.863	8192	-8191	8192	8192	254	
77698.992	1	1	0	0	946.429	957.098	871.768	3.90185	768.717	379.092	111.809	1109.87	1406.11	1572.27	1367.39	40.2404	1123.25	616.327	242.803	1960.3	192.683	23.270	193.004	89.948	10.180	11.009	21.667	8.682	8192	-8191	8192	8192	254	
77699.039	1	1	0	0	927.589	948.904	889.833	5.70003	773.968	370.742	121.958	1119.16	1405.22	1570.32	1375.68	42.5721	1122.68	603.173	245.192	1962.16	194.480	24.539	190.254	16.596	8.355	11.569	22.251	9.706	8192	-8191	8192	8192	254	
77699.109	1	1	0	0	908.969	936.387	872.113	6.77972	761.837	375.399	112.666	1100.74	1417.43	1553.83	1346.88	46.1346	1121.37	621.135	231.913	1958.09	194.814	23.191	191.813	133.981	8.737	13.600	19.349	9.102	8192	-8191	8192	8192	254	
77699.156	1	1	0	0	939.819	918.651	871.742	5.49586	762.614	361.923	104.756	1124.23	1423.53	1544.74	1369.41	42.524	1114.05	608.101	228.716	1965.87	193.752	23.292	192.697	180.162	8.196	15.385	11.405	9.288	8192	-8191	8192	8192	254	
77699.203	1	1	0	0	932.533	967.033	873.032	1.96748	751.542	353.445	111.635	1118.82	1399.4	1568.36	1361.32	41.1683	1120.41	601.072	234.269	1978.18	193.280	21.274	193.026	265.261	9.220	10.168	15.802	9.378	8192	-8191	8192	8192	254	
77699.250	1	1	0	0	932.973	951.231	882.982	0.387	775.448	356.891	110.933	1126.04	1422.23	1563.82	1354.08	42.4567	1099.88	613.832	243.798	1973.3	194.375	23.175	194.262	221.017	8.732	11.600	14.407	8.128	8192	-8191	8192	8192	254	
77699.305	1	1	0	0	930.885	962.48	874.389	7.57392	740.705	382.926	127.785	1129.93	1402.23	1577.98	1362.15	46.7115	1108.99	621.394	243.856	1955.16	194.638	22.433	194.606	315.189	11.070	13.210	18.829	7.844	8192	-8191	8192	8192	254	
77699.352	1	1	0	0	937.521	976.263	859.695	4.89357	737.309	350.177	117.377	1125.07	1422.7	1576.99	1362.62	43.7163	1081.11	594.577	239.654	1978.97	194.478	20.178	194.276	189.439	9.484	11.921	16.628	10.339	8192	-8191	8192	8192	254	
77699.398	1	1	0	0	928.937	946.288	873.614	0.376441	748.485	377.205	123.009	1073.59	1414.73	1550.9	1346.84	45.1442	1098.74	622.043	232.808	1962.04	193.386	22.627	192.175	114.478	9.017	14.029	16.630	7.694	8192	-8191	8192	8192	254	
77699.445	1	1	0	0	897.737	962.117	881.446	4.10794	745.83	358.049	115.57	1116.39	1394.05	1573.23	1359.75	44.4808	1107.03	594.096	229.76	1964.33	194.270	23.633	193.000	107.101	9.936	14.251	16.758	8.794	8192	-8191	8192	8192	254	
77699.516	1	1	0	0	935.198	926.067	886.918	4.4812	740.118	348.109	123.543	1094.17	1411.49	1546.68	1353.05	41.6154	1105.75	610.861	241.615	1958.17	193.571	21.192	193.128	283.137	10.210	13.092	19.271	9.733	8192	-8191	8192	8192	254	
77699.562	1	1	0	0	930.704	959.185	879.164	5.89015	712.716	343.739	110.605	1116.58	1410.99	1548.31	1365.32	43.4519	1094.28	596.534	237.462	1981.42	194.622	22.080	194.258	198.423	8.724	14.021	16.742	10.197	8192	-8191	8192	8192	254	
77699.617	1	1	0	0	934.769	924.041	889.611	5.77187	770.869	362.561	121.241	1111.35	1398.37	1556.47	1364.86	45.6731	1122.04	606.269	241.26	1981.5	192.345	22.848	192.598	138.066	9.549	11.055	9.468	10.440	8192	-8191	8192	8192	254	
77699.664	1	1	0	0	932.288	945.266	844.387	2.45352	740.809	380.22	116.592	1119.54	1407.22	1550.12	1343.43	46.7548	1102.42	609.841	241.947	1982.13	194.938	22.568	191.519	137.436	8.860	13.376	12.350	8.340	8192	-8191	8192	8192	254	
77699.711	1	1	0	0	958.063	933.713	883.286	3.41353	723.808	359.426	115.609	1123.29	1397.13	1554.55	1375.48	47.1827	1102.74	597.702	247.375	1960.28	193.314	23.555	192.496	289.391	8.246	13.937	10.540	9.574	8192	-8191	8192	8192	254	
77699.758	1	1	0	0	924.218	959.413	866.16	1.45082	741.414	374.827	117.577	1128.08	1404.35	1546.36	1333.14	43.5913	1105.85	603.264	236.361	1962.61	194.869	22.259	192.566	26.500	9.366	16.070	19.081	9.742	8192	-8191	8192	8192	254	
77699.758	1	1	0	0	907.326	928.105	884.636	3.83	729.324	372.251	109.141	1105.64	1382.11	1541.34	1371.63	44.875	1109.03	603.308	233.615	1977.68	194.089	23.152	191.928	277.639	7.701	13.410	14.754	10.517	8192	-8191	8192	8192	254	
77699.805	1	1	0	0	929.936	913.95	857.905	1.27364	759.068	359.557	114.737	1093.73	1406.5	1544.99	1345.34	47.8606	1109.75	600.322	240.726	1929.17	194.614	23.450	193.084	36.027	9.250	13.121	16.461	7.850	8192	-8191	8192	8192	254	
77699.852	1	1	0	0	961.136	929.16	871.495	6.20521	703.998	352.04	110.435	1126.18	1397.24	1551.04	1353.34	43.1587	1078.38	598.62	239.106	1986.46	194.297	22.434	193.643	186.059	8.821	13.809	15.820	9.159	8192	-8191	8192	8192	254	
77699.898	1	1	0	0	946.561	930.759	875.045	6.14141	716.555	358.852	114.397	1089.75	1418.84	1529.05	1345.75	44.9183	1103.52	610.654	246.606	1956.07	194.501	23.049	193.117	53.458	8.201	13.144	17.169	8.346	8192	-8191	8192	8192	254	
77699.977	1	1	0	0	938.384	926.884	885.467	2.06733	737.565	361.827	119.732	1115.22	1411.87	1541.4	1359.34	46.6442	1094.5	599.188	233.452	1988.37	195.973	21.279	191.259	290.975	8.394	10.732	19.763	10.766	8192	-8191	8192	8192	254	
77700.023	1	1	0	0	952.444	946.542	847.84	6.21664	753.336	363.043	114.662	1134.05	1425.42	1560.39	1341.56	45.1971	1130.26	600.798	247.048	1980.06	195.179	24.230	194.944	7.116	7.743	13.429	10.442	8.169	8192	-8191	8192	8192	254	
77700.070	1	1	0	0	942.579	922.64	869.048	1.49521	742.417	359.653	118.227	1146.72	1409.95	1543.06	1348.11	51.8606	1124.73	606.385	246.034	1991.9	193.102	20.930	192.613	346.681	9.764	12.634	19.786	10.328	8192	-8191	8192	8192	254	
77700.117	1	1	0	0	916.443	935.749	856.372	4.26518	718.606	382.418	123.035	1132.43	1415.31	1563	1347.13	46.0144	1091.78	625.971	240.072	1996.67	196.037	23.350	192.828	228.870	9.354	9.807	11.951	7.840	8192	-8191	8192	8192	254	
77700.164	1	1	0	0	927.93	924.898	900.272	4.16266	741.65	354.204	108.765	1139.76	1414.26	1550.13	1364.64	49.5529	1112.84	609.5	236.288	1962.39	194.702	23.871	193.105	260.931	10.075	13.731	11.937	8.015	8192	-8191	8192	8192	254	
77700.211	1	1	0	0	943.372	934.657	851.076	6.84662	735.286	339.922	110.515	1152.01	1403.97	1567.9	1357.77	48.351	1111.87	603.543	238.76	1968.9	194.440	22.373	193.531	103.398	9.305	12.566	16.781	9.146	8192	-8191	8192	8192	254	
77700.266	1	1	0	0	920.929	967.995	886.1	0.632191	741.391	348.576	114.293	1084.96	1406.13	1562.97	1372.59	44.7356	1107.89	603.668	241.683	1970.74	193.516	23.542	193.244	232.021	9.836	13.638	12.831	9.249	8192	-8191	8192	8192	254	
77700.312	1	1	0	0	947.542	920.928	900.04	6.30822	763.717	352.456	106.363	1082.98	1412.11	1545.45	1372.57	44.3846	1120.95	595.255	236.37	1963.7	194.874	22.010	192.305	110.846	10.305	15.118	8.426	8.582	8192	-8191	8192	8192	254	
77700.383	1	1	4	0	920.47	966.437	874.529	6.78072	746.763	345.603	120.33	1139.29	1407.41	1556.34	1358.69	51.2308	1119.73	598.822	251.087	1997.82	195.116	23.082	191.762	197.618	9.558	10.786	19.082	9.324	8192	-8191	8192	8192	254	
77700.430	1	1	0	0	931.322	922.513	881.668	2.21849	745.857	364.205	113.802	1115.02	1417.23	1545.22	1375.12	44.5529	1110.45	606.01	238.601	1982.94	194.458	22.582	193.309	244.987	8.389	10.242	12.231	10.330	8192	-8191	8192	8192	254	
77700.477	1	1	0	0	965.099	967.864	875.602	8.91957	739.988	355.633	118.362	1124.69	1418.06	1577.69	1352.02	45.476	1110.15	607.096	239.087	1977.99	195.256	21.268	192.554	319.673	9.969	11.831	16.711	8.408	8192	-8191	8192	8192	254	
77700.523	1	1	0	0	951.445	929.963	882.188	4.45254	755.815	359.682	121.365	1104.79	1434.91	1544.51	1371.9	43.3077	1121.95	598.327	240.091	1969.45	192.212	23.720	193.066	35.079	8.739	15.325	14.471	8.497	8192	-8191	8192	8192	254	
77700.523	1	1	0	0	949.181	933.908	908.13	4.08847	715.993	356.533	111.853	1150.76	1421	1553.07	1371.46	45.8077	1095	606.25	240.096	1990.47	195.045	20.904	193.090	59.127	9.626	11.709	16.786	9.589	8192	-8191	8192	8192	254	
77700.570	1	1	0	0	954.003	945.237	897.705	3.53658	743.61	352.455	117.994	1127.26	1409.56	1571.47	1386.11	47.1202	1115.85	602.476	239.808	1984	194.154	23.497	192.633	164.571	7.247	16.116	20.935	8.154	8192	-8191	8192	8192	254	
77700.648	1	1	0	0	919.758	946.247	851.507	8.42708	758.463	354.826	127.207	1154.53	1403.39	1578.55	1363.9	44.9663	1114.07	596.26	249.495	2011.45	194.334	21.898	193.682	98.867	8.564	12.787	10.168	10.145	8192	-8191	8192	8192	254	
77700.695	1	1	0	0	897.235	934.037	868.421	2.36029	767.328	362.808	119.509	1086.75	1391.74	1581.24	1363.1	51.399	1116.88	614.149	246.409	1975.77	194.940	21.212	191.350	259.580	7.620	14.320	15.896	9.565	8192	-8191	8192	8192	254	
77700.742	1	1	0	0	926.019	970.478	869.347	0.718862	743.183	366.1	114.04	1104.48	1423.64	1592.15	1357.99	58.1154	1106.52	625.913	251.87	1990.18	193.788	21.788	193.693	319.371	10.528	10.327	17.145	8.362	8192	-8191	8192	8192	254	
77700.789	1	1	0	0	914.873	962.133	858.006	3.79236	771.956	363.819	126.014	1156.73	1420.76	1585.4	1382.71	61.1442	1142.54	646.596	271.351	2010.41	195.518	24.210	193.038	12.418	9.385	14.335	17.117	9.504	8192	-8191	8192	8192	254	
77700.836	1	1	0	0	961.344	977.233	870.986	4.36322	760.519	350.565	119.538	1137.63	1466.74	1602.11	1380.53	80.2019	1149.55	654.952	281.495	2026.02	193.745	22.929	192.831	157.950	10.194	14.241	16.434	8.779	8192	-8191	8192	8192	254	
77700.883	1	1	0	0	928.839	952.964	900.039	3.02443	719.857	380.471	109.697	1157.89	1446.51	1628.72	1426.68	90.2644	1145.84	681.962	304.889	2046.6	196.752	22.359	195.134	347.476	9.816	14.233	15.911	9.663	8192	-8191	8192	8192	254	
77700.930	1	1	0	0	924.153	956.817	897.721	7.50806	756.06	387.39	112.314	1135.38	1477.46	1620.57	1445.48	121.005	1201.24	704.808	320.673	2097.2	193.460	21.719	193.942	132.899	7.979	10.635	11.252	8.439	8192	-8191	8192	8192	254	
77700.984	1	1	0	0	955.665	983.219	900.198	3.56062	745.817	346.399	124.645	1132.08	1508.18	1677.79	1498.85	146.654	1213.83	705.827	337.995	2068.13	195.453	23.914	192.644	211.505	8.576	12.731	14.513	8.571	8192	-8191	8192	8192	254	
77701.055	1	1	0	0	942.902	898.658	838.649	2.13771	710.904	365.534	127.315	1124.59	1508	1596.48	1421.85	97.3221	1150.37	653.438	290.192	2043.93	193.916	22.321	192.547	25.545	6.753	16.519	17.942	9.645	8192	-8191	8192	8192	254	
77701.102	1	1	0	0	912.41	911.056	878.055	9.85307	744.753	368.183	118.768	1123.14	1449.84	1591.35	1394.69	81.5096	1137.29	640.471	271.399	1999.43	194.555	23.078	194.728	26.803	8.928	12.129	17.353	8.659	8192	-8191	8192	8192	254	
77701.148	1	1	0	0	967.322	947.999	894.69	5.49423	779.868	364.507	121.717	1104.81	1433.76	1580.51	1410.85	66.2452	1145.72	624.438	259.726	2002.61	192.897	22.706	192.377	128.182	8.544	14.122	17.798	10.542	8192	-8191	8192	8192	254	
77701.195	1	1	0	0	971.957	900.605	891.598	8.06116	741.51	360.453	129.068	1151.55	1433.03	1553.41	1387.06	62.0385	1130.46	631.582	263.26	2028.97	197.024	24.418	192.926	11.540	6.987	12.178	15.447	7.989	8192	-8191	8192	8192	254	
77701.242	1	1	0	0	966.348	949.108	896.292	3.99612	754.469	348.625	120.585	1131.14	1427.46	1575.33	1391.01	62.2644	1147.14	623.466	286.264	2009.51	195.402	23.306	193.542	282.965	9.061	14.242	18.082	9.315	8192	-8191	8192	8192	254	
77701.297	1	1	0	0	914.93	949.359	884.25	6.52398	718.42	361.358	131.243	1114.73	1436.58	1601.88	1408.45	94.9183	1180.98	682.688	324.264	2048.91	194.041	20.462	194.947	11.544	9.579	12.964	15.646	9.696	8192	-8191	8192	8192	254	
77701.297	1	1	0	0	890.534	926.103	893.795	4.62512	747.066	356.452	105.886	1090.33	1495.69	1637	1492.3	167.548	1263.33	772.577	427.841	2193.12	195.185	22.160	196.319	37.845	9.647	8.053	13.711	8.232	8192	-8191	8192	8192	254	
77701.344	1	1	0	0	942.744	936.984	867.685	9.97286	766.946	359.979	100.184	1122.7	1639.26	1838.26	1688.39	364.077	1468.76	908.159	536.688	2297.29	194.403	21.254	195.736	224.405	8.900	12.107	17.889	9.240	8192	-8191	8192	8192	254	
77701.414	1	1	0	0	943.498	941.957	878.583	17.5745	736.641	365.402	115.606	1118.97	1716.63	1854.3	1654.93	344.341	1434.04	922.62	567.663	2288.87	192.608	23.311	191.961	253.124	10.218	6.570	15.069	7.683	8192	-8191	8192	8192	254	
77701.461	1	1	0	0	947.644	966.415	873.502	13.9732	737.941	380.948	124.401	1135.18	1727.62	1895.36	1681.56	345.438	1419.24	922.553	559.178	2307.48	195.998	21.604	191.063	216.765	10.065	15.084	14.513	8.280	8192	-8191	8192	8192	254	
77701.508	1	1	0	0	932.911	944.372	904.823	12.8869	734.617	387.82	102.958	1147.35	1698.17	1868.87	1718.38	369.005	1453.54	956.928	579.788	2323.28	194.210	19.467	194.660	155.261	8.854	11.413	9.490	9.381	8192	-8191	8192	8192	254	
77701.555	1	1	0	0	936.674	950.4	904.204	18.0147	728.659	358.825	120.869	1127.46	1748.89	1911.5	1713.74	385.798	1454.06	950.894	588.346	2331.83	193.641	22.941	194.422	329.595	7.391	13.248	16.021	9.315	8192	-8191	8192	8192	254	
77701.609	1	1	0	0	902.098	939.792	897.204	10.3993	743.27	389.787	119.379	1111.27	1753.96	1911.37	1727.15	394.688	1480.94	967.548	600.856	2340.55	195.209	22.389	191.280	158.860	10.210	14.321	15.141	8.480	8192	-8191	8192	8192	254	
77701.656	1	1	0	0	952.36	970.135	858.342	24.6573	745.921	370.296	122.949	1159.74	1790.64	1938.62	1741.63	400.947	1490.83	995.466	616.726	2401.28	195.528	21.941	192.228	15.891	10.797	8.974	16.661	10.191	8192	-8191	8192	8192	254	
77701.703	1	1	0	0	963.263	1002.67	870.504	6.72472	775.862	369.943	130.368	1202.81	1821.51	1982.1	1762.94	432.971	1518.98	1012.3	640.005	2452.28	194.980	23.215	190.870	133.576	9.314	11.422	22.829	9.183	8192	-8191	8192	8192	254	
77701.750	1	1	0	0	964.41	971.606	870.526	16.9357	778.478	349.991	120.358	1123.87	1857.9	2000.38	1773.23	455.067	1542.02	1016.36	639.976	2381.75	194.409	21.794	194.680	16.654	11.003	14.338	5.716	8.015	8192	-8191	8192	8192	254	
77701.797	1	1	0	0	929.28	930.083	872.72	3.50242	721.672	354.744	126.672	1150.68	1812.25	1978.53	1753.4	455.861	1528.33	1033.42	648.062	2395.64	194.295	22.390	192.716	47.207	10.186	14.548	8.498	9.497	8192	-8191	8192	8192	254	
77701.844	1	1	0	0	928.119	947.676	872.212	7.73028	731.454	384.078	128.085	1165.09	1822.8	1958.63	1764.43	459.784	1523.14	1026.7	650.986	2381.17	195.110	21.784	194.313	154.064	9.870	10.864	15.654	8.513	8192	-8191	8192	8192	254	
77701.922	1	1	0	0	933.815	942.297	855.772	11.7088	735.646	363.072	133.36	1141.22	1819.44	1956.16	1775.1	465.976	1519.04	1042.2	679.226	2483	193.297	23.130	194.070	190.334	10.995	13.741	10.540	11.443	8192	-8191	8192	8192	254	
77701.969	1	1	0	0	948.927	945.983	791.509	11.485	531.627	181.445	42.9566	232.874	1892.11	1994.3	1675.25	412.332	1135.55	608.606	336.043	612.457	195.897	21.430	192.312	106.535	9.079	11.817	356.793	11.540	8192	-8191	8192	8192	254	
77702.016	1	1	0	65536	64.4916	13.924	11.4836	6.45641	3.64262	7.00359	12.9864	168.645	288.62	229.058	205.019	196.49	185.837	193.841	571.216	7358	190.648	23.923	161.071	235.227	274.483	148.067	128.862	115.255	8192	-8191	8192	8192	254	
77702.062	1	1	0	65536	59.7103	184.203	197.355	20.1446	76.6425	28.5858	128.235	107.73	25184.9	26462.9	31023.5	31500.4	29419.8	28863.2	28294.8	28308.6	298.922	155.487	76.044	109.349	327.908	263.287	128.509	2.597	8192	-8191	8192	8192	254	
77702.062	1	1	0	0	135.331	70.8612	73.4428	130.458	32.9844	101.522	148.436	180.359	28038.1	27955.5	28047.8	27763.3	27528.4	27664.7	27287.2	26913.8	278.895	276.395	284.377	115.634	165.099	71.582	197.117	319.302	8192	-8191	8192	8192	254	
77702.109	1	1	0	0	185.468	77.6124	90.9704	160.032	192.973	45.1273	88.5169	86.6511	26094.6	25676	26227.8	26182.9	24533.3	23010.5	23407.6	22116	163.943	293.122	190.251	352.047	323.276	294.749	31.682	289.537	8192	-8191	8192	8192	254	
77702.156	1	1	0	65536	85.6467	163.491	149.192	131.606	93.0274	83.5518	38.5846	128.993	23712.4	28975.8	28676.1	19644.2	19574.6	18263.4	17155.4	19807	285.968	134.131	328.275	292.115	287.211	293.448	144.641	62.569	8192	-8191	8192	8192	254	
77702.203	1	1	0	65536	121.752	170.44	54.7745	59.3155	108.821	46.9875	177.901	118.423	24125.4	29891	32706.3	32578	28584.3	22260.3	16318.3	7537.69	113.079	36.854	102.730	186.100	115.528	265.179	321.758	286.931	8192	-8191	8192	8192	254	
77702.281	1	1	0	0	32.195	17.2808	14.3757	30.8759	2.22278	20.6141	9.71441	17.6044	1802.42	968.784	954.101	935.76	957.514	1005.85	1033.04	1063.89	247.559	282.469	111.950	159.064	49.766	120.018	329.197	138.299	8192	-8191	8192	8192	254	
77702.328	1	1	0	0	14.906	12.6988	21.1489	17.7375	31.6649	14.4178	24.7334	5.35612	1080.4	1080.85	1099.73	1108.47	1129.4	1125.45	1152.38	1150.67	282.640	273.650	222.128	0.948	254.169	56.828	41.378	96.811	8192	-8191	8192	8192	254	
77702.375	1	1	0	0	11.2852	20.2729	10.619	18.4361	29.5531	24.1576	13.3591	33.0265	1148.88	1153.39	1152.54	1154.96	1122.75	1140.06	1113.96	1130.42	339.617	267.994	324.191	335.076	261.371	95.902	135.289	332.394	8192	-8191	8192	8192	254	
77702.422	1	1	0	0	11.8892	12.5074	4.0564	43.1695	11.9118	21.722	7.49919	25.6203	1108.57	1108.55	1106.54	1127.96	1111.73	1104.39	1111.44	1121.49	168.663	157.110	105.002	351.537	346.779	281.539	45.774	191.182	8192	-8191	8192	8192	254	
77702.469	1	1	0	0	16.5329	26.2276	7.61856	4.06367	12.9875	7.86602	18.6866	41.1306	1122.22	1116	1133.04	1126.3	1142.76	1153.74	1151.4	1167.83	271.364	70.006	151.841	30.509	179.430	251.586	134.993	76.271	8192	-8191	8192	8192	254	
77702.516	1	1	0	0	10.9048	7.80538	15.4982	66.3284	78.2028	128.877	58.5005	28.1975	1162.36	1237.99	1215.91	3863.28	6685.29	8439.46	10201.6	11770.8	79.490	358.506	252.550	77.115	153.312	150.192	282.131	132.895	8192	-8191	8192	8192	254	
77702.594	1	1	0	0	121.979	161.007	74.6021	14.2159	39.2386	32.5337	60.8915	59.4582	12028.4	12315.2	12296.5	12304.7	12359.6	12191.9	12087.9	11891.2	112.675	116.102	324.756	168.876	320.376	51.521	98.909	88.363	8192	-8191	8192	8192	254	
77702.641	1	1	0	0	56.0948	67.7948	63.2102	13.5727	80.7972	30.4699	85.2844	68.6361	11696.8	11448.8	11214.3	11064.4	10919	10709.6	10511.7	10317.3	272.103	33.103	210.047	247.098	320.922	352.395	258.350	92.544	8192	-8191	8192	8192	254	
77702.688	1	1	0	0	79.4791	81.8836	12.4684	41.435	7.49231	64.5314	47.3721	24.7583	10177.3	10083.3	9910.14	9730.71	9672.7	9486.29	9322.72	9169.5	259.847	339.400	41.931	302.247	218.970	181.178	1.715	182.865	8192	-8191	8192	8192	254	
77702.734	1	1	0	0	58.4269	37.8757	48.0593	32.9939	64.4377	48.0425	35.7067	55.6709	8904.83	8809.68	8609.32	8364.91	8213.75	8025.31	7936.88	7647.2	91.294	343.795	202.100	30.802	121.854	153.824	173.545	329.523	8192	-8191	8192	8192	254	
77702.781	1	1	0	0	43.7617	65.6658	80.2785	46.5156	39.8366	30.2357	18.3571	22.9077	7558.12	7375.32	7149.98	7003.06	6760.14	6604.45	6371.67	6162.64	339.404	278.602	162.808	127.445	172.382	282.739	134.464	120.481	8192	-8191	8192	8192	254	
77702.828	1	1	0	0	22.9863	34.288	69.0941	31.3268	12.3415	29.4809	17.7376	34.2244	5964.98	5765.52	3494.29	1995.13	2040.47	2056.61	2086.59	2105.75	239.190	245.746	343.057	61.860	350.278	11.308	181.987	301.523	8192	-8191	8192	8192	254	
77702.828	1	1	0	0	28.0505	15.6034	15.9365	27.3748	17.0107	7.3233	48.7406	31.2681	2148.97	2184.51	2226.58	2255.61	2319.3	2341.63	2410.12	2429	305.013	324.102	156.936	79.972	209.828	28.469	280.221	347.199	8192	-8191	8192	8192	254	
77702.875	1	1	0	0	39.5174	39.5517	20.8672	11.788	27.0802	43.1091	17.9315	75.0575	2476.63	2516.4	2554.92	2565.25	2593.31	2693.03	2684.85	2713.36	230.742	270.346	178.258	82.273	73.006	77.590	354.358	253.964	8192	-8191	8192	8192	254	
77702.953	1	1	0	0	7.79652	60.0858	22.9771	29.3078	14.202	53.0344	15.0156	26.7683	2792.72	2815.19	2845.97	2885.26	2885.49	2925.1	2958.72	2916.2	160.871	120.215	328.379	39.171	314.769	188.879	303.191	175.833	8192	-8191	8192	8192	254	
77703.000	1	1	0	0	15.9361	12.0468	49.0294	26.1075	27.4404	33.1269	15.3236	13.0093	2919.73	2950.97	2979.69	3018.63	3056.34	3094.49	3094.28	3139.07	28.415	253.598	198.811	352.015	0.686	352.732	322.119	310.427	8192	-8191	8192	8192	254	
77703.047	1	1	0	0	19.1582	14.0074	29.3912	23.742	17.7298	22.8679	33.7424	33.2642	3133.58	3157.8	3242.86	3272.73	3295.24	3280.32	3333.77	3302.6	21.667	161.556	76.558	80.395	303.229	221.994	147.120	286.292	8192	-8191	8192	8192	254	
77703.094	1	1	0	0	22.2366	19.0873	62.0611	24.053	4.84187	7.05529	0.316171	5.76772	3325.21	3294.64	1995.38	517.38	271.822	202.644	193.899	196.519	38.649	227.878	282.120	302.606	163.365	285.353	228.329	333.536	8192	-8191	8192	8192	254	
77703.141	1	1	0	0	8.97403	8.26602	9.6643	8.50069	5.177	1.96542	6.38262	6.49496	194.779	188.572	186.212	191.332	188.389	190.865	183.308	188.861	15.976	119.540	328.454	263.124	346.140	82.794	106.093	181.481	8192	-8191	8192	8192	254	
77703.188	1	1	0	0	6.746	8.49009	9.24961	7.61349	1.99924	10.3632	5.55342	2.289	193.986	189.356	184.457	190.635	183.394	181.014	188.894	199.327	149.297	173.138	16.657	284.416	221.591	357.893	274.920	259.760	8192	-8191	8192	8192	254	
77703.234	1	1	0	0	5.6527	11.9493	3.18282	4.26208	2.91911	2.5319	6.18749	14.9385	179.923	196.322	193.803	196.269	191.846	196.817	180.745	184.351	272.439	62.158	29.601	246.214	315.790	14.415	153.849	174.849	8192	-8191	8192	8192	254	
77703.289	1	1	0	0	15.3238	2.98289	14.4362	2.55053	3.24733	6.98157	8.58316	9.88416	193.74	188.356	196.197	192.005	189.966	193.115	192.312	203.385	24.996	99.223	33.649	180.625	307.811	132.469	255.935	35.235	8192	-8191	8192	8192	254	
77703.359	1	1	0	0	22.3023	17.2268	39.3316	3.49097	166.689	102.708	52.083	302.796	197.543	236.88	310.082	295.639	614.519	541.87	438.731	947.168	295.764	55.721	195.036	334.491	17.255	20.428	17.097	18.575	8192	-8191	8192	8192	254	
77703.406	1	1	0	0	234.441	231.764	222.775	20.9086	181.268	100.782	35.8267	306.989	726.495	782.418	725.49	373.697	678.317	546.096	443.716	927.139	202.604	33.120	194.246	329.585	9.002	20.432	21.400	11.448	8192	-8191	8192	8192	254	
77703.453	1	1	0	0	238.404	250.47	228.113	10.3696	186.369	112.878	31.3556	320.717	753.034	788.779	756.538	394.269	695.615	567.567	455.135	959.486	198.708	26.758	196.281	305.151	14.612	16.443	2.354	14.874	8192	-8191	8192	8192	254	
77703.500	1	1	0	0	248.019	241.45	235.14	13.2633	224.313	92.9957	37.9857	359.402	775.548	802.433	761.889	407.168	726.361	582.139	465.341	1018.12	200.916	28.460	197.944	180.288	12.886	11.092	349.995	15.027	8192	-8191	8192	8192	254	
77703.547	1	1	0	0	257.842	272.677	256.597	10.0774	222.65	109.475	28.9576	325.374	790.188	836.25	794.356	410.798	728.798	585.038	483.923	1011.17	198.901	30.953	200.038	75.268	19.674	20.548	28.274	15.890	8192	-8191	8192	8192	254	
77703.602	1	1	0	0	276.741	262.66	242.971	13.0696	235.488	108.392	33.4022	331.716	811.077	867.837	798.822	411.005	740.856	598.043	478.308	1020.62	193.705	26.911	200.692	210.005	17.170	13.298	31.953	16.891	8192	-8191	8192	8192	254	
77703.602	1	1	0	0	303.142	270.225	242.645	9.0303	206.568	113.504	37.8103	354.355	828.192	867.625	800.087	437.24	740.231	622.481	495.058	1028.74	198.365	25.677	200.089	319.982	9.641	15.765	24.216	13.210	8192	-8191	8192	8192	254	
77703.648	1	1	0	0	258.26	238.464	222.867	14.3671	220.633	122.125	37.8727	328.501	847.038	869.673	836.188	469.26	797.567	664.202	570.13	1088.44	202.326	32.270	197.179	89.803	11.388	11.417	3.842	12.399	8192	-8191	8192	8192	254	
77703.695	1	1	0	0	259.093	266.049	218.706	3.09223	213.218	101.436	26.6645	306.96	922.822	977.663	919.154	523.596	785.308	595.418	451.591	909.51	201.884	26.203	204.034	10.786	12.798	16.506	25.080	12.176	8192	-8191	8192	8192	254	
77703.742	1	1	0	0	225.32	239.093	226.376	7.1623	179.554	106.8	30.6184	283.712	683.851	700.043	630.981	285.721	514.75	393.322	268.043	712.846	201.045	23.894	197.652	357.594	15.015	23.285	22.428	13.608	8192	-8191	8192	8192	254	
77703.812	1	1	0	0	226.629	233.853	215.752	8.57193	170.957	105.34	41.862	291.578	522.476	543.385	487.889	148.486	400.149	278.361	169.269	620.75	195.804	32.456	197.469	84.598	15.862	19.145	10.881	13.804	8192	-8191	8192	8192	254	
77703.859	1	1	0	0	225.606	214.507	192.362	7.77404	188.373	92.4575	35.448	290.311	439.337	449.413	408.25	81.0337	355.221	211.736	114.966	573.053	202.098	31.536	196.128	8.363	16.186	25.149	14.723	15.018	8192	-8191	8192	8192	254	
77703.906	1	1	0	0	223.734	218.458	202.773	1.29939	185.967	93.0353	28.8585	284.033	396.587	419.663	384.024	59.3365	331.067	212.654	111.034	562.707	199.582	28.815	198.406	359.533	14.065	17.193	11.719	11.239	8192	-8191	8192	8192	254	
77703.961	1	1	0	0	224.566	219.786	203.688	5.40695	189.135	95.1139	32.8275	291.268	391.514	422.495	374.048	70.9183	334.058	214.51	119.957	573.553	197.659	32.802	198.594	142.661	15.826	17.430	15.413	9.669	8192	-8191	8192	8192	254	
77704.008	1	1	0	0	217.943	211.823	188.849	1.34231	188.907	102.174	26.3921	281.939	387.702	433.024	369.144	68.4712	345.394	228.543	123.755	575.587	197.251	25.156	200.321	308.999	14.056	16.004	16.534	14.731	8192	-8191	8192	8192	254	
77704.055	1	1	0	0	223.812	225.745	234.929	3.37281	179.612	85.7924	29.1651	295.515	413.438	433.226	390.188	78.9471	332.88	209.495	135.635	575.332	201.692	29.422	197.566	195.109	16.594	18.637	29.133	11.877	8192	-8191	8192	8192	254	
77704.102	1	1	0	0	225.245	228.625	200.072	6.03941	199.863	103.292	27.1692	311.761	401.014	430.88	376.788	70.0817	342.01	217.837	115.861	572.144	201.797	26.142	201.533	263.811	10.523	18.538	27.396	13.951	8192	-8191	8192	8192	254	
77704.148	1	1	0	0	244.067	219.527	218.257	3.25262	192.953	90.9044	33.9886	299.284	389.423	408.293	376.034	57.5433	317.966	201.173	97.6635	553.317	197.663	28.417	197.218	35.750	18.156	20.189	21.512	14.910	8192	-8191	8192	8192	254	
77704.227	1	1	0	0	211.493	218.86	201.89	5.93958	178.579	94.3523	35.4609	274.405	364.389	398.745	358.995	43.3606	312.26	187.034	97.726	545.837	199.059	29.991	201.099	193.372	14.554	23.483	34.204	13.376	8192	-8191	8192	8192	254	
77704.273	1	1	0	0	212.005	229.668	199.083	1.58352	181.891	95.0797	32.0052	278.052	370.635	405.548	356.596	44.5769	309.24	196.01	96.0288	551.62	196.187	27.091	199.353	109.114	15.094	15.890	32.393	15.156	8192	-8191	8192	8192	254	
77704.320	1	1	0	0	223.835	218.309	199.763	0.631569	182.793	93.0089	28.0146	290.057	375.317	398.644	347.62	44.2404	314.567	189.562	92.3894	542.404	196.613	30.703	201.342	231.385	12.647	16.058	19.075	14.651	8192	-8191	8192	8192	254	
77704.367	1	1	0	0	222.927	230.056	200.094	0.236672	182.877	93.6022	26.9998	313.209	373.49	409.668	361.062	43.4856	303.976	195.255	89.4375	550.014	200.702	29.813	197.045	109.372	15.016	18.710	12.594	14.203	8192	-8191	8192	8192	254	
77704.367	1	1	0	0	219.439	233.231	202.072	5.63325	180.985	104.73	22.3565	303.467	367.856	401.288	350.49	41.0865	302.764	190.5	94.2212	535.183	197.000	30.139	200.747	70.361	12.360	21.423	28.799	15.380	8192	-8191	8192	8192	254	
77704.414	1	1	0	0	221.231	223.607	216.046	2.84035	194.603	85.8315	30.2246	288.799	362.163	393.986	353.192	42.125	300.067	184.428	94.7837	537.971	200.559	31.653	196.936	276.209	9.745	13.717	29.725	15.387	8192	-8191	8192	8192	254	
77704.461	1	1	0	0	236.968	222.842	202.661	4.67444	190.054	96.8464	28.562	288.294	378.125	392.543	348.418	49.4904	312.726	188.697	95.0962	532.24	196.812	30.768	195.294	116.771	16.181	22.568	18.791	13.817	8192	-8191	8192	8192	254	
77704.508	1	1	0	0	208.605	220.909	194.595	7.79979	175.764	97.0757	31.7694	278.27	358.058	395.538	345.538	43.9327	302.13	196.514	92.399	543.471	206.768	28.154	199.046	1.577	14.038	15.000	26.757	13.661	8192	-8191	8192	8192	254	
77704.586	1	1	0	0	220.778	211.582	218.95	6.04687	177.783	89.4342	25.168	293.01	359.183	393.817	361.812	43.8077	304.125	187.399	93.9327	535.99	201.281	30.944	201.183	118.665	14.275	19.500	29.580	17.537	8192	-8191	8192	8192	254	
77704.633	1	1	0	0	239.257	208.597	216.345	5.55616	182.698	103.727	40.0229	301.597	372.856	390.755	358.577	45.4567	304.385	195.351	91.3462	541.173	203.983	26.016	196.462	93.493	17.830	14.886	32.072	17.509	8192	-8191	8192	8192	254	
77704.680	1	1	0	0	234.603	224.208	189.676	2.70887	197.026	79.0528	34.1101	291.897	367.62	402.312	341.356	42.2115	301.611	184.856	93.2692	536.606	194.829	27.085	201.636	146.133	12.704	13.786	15.300	14.268	8192	-8191	8192	8192	254	
77704.727	1	1	0	0	226.773	222.167	206.914	4.9756	181.98	98.0455	29.8851	294.843	367.269	388.904	344.923	42.4904	302.885	189.322	94.0721	541.861	204.826	28.006	197.432	51.002	13.996	22.668	32.721	16.908	8192	-8191	8192	8192	254	
77704.773	1	1	0	0	217.478	215.416	197.23	4.50294	183.777	83.2001	37.9385	289.621	369.168	388.043	343.495	42.1779	299.365	185.072	101.346	535.135	199.390	25.345	199.076	289.034	12.895	19.344	26.907	16.031	8192	-8191	8192	8192	254	
77704.820	1	1	0	0	198.848	214.141	197.601	5.39513	180.001	95.0627	29.1087	281.997	361.024	387.928	335.144	40.2596	306.476	191.471	89.8029	528.543	198.083	29.212	195.965	276.769	11.966	23.176	40.173	16.589	8192	-8191	8192	8192	254	
77704.891	1	1	0	0	208.788	206.881	198.424	5.64795	190.533	85.7613	32.9971	299.065	355.822	390.562	344.034	42.6971	316.312	180.327	97.6394	546.231	198.809	29.038	194.382	4.645	15.990	15.075	21.734	15.502	8192	-8191	8192	8192	254	
77704.945	1	1	0	0	226.244	222.774	189.771	6.33365	197.425	86.789	25.5336	273.948	361.596	390.409	345.957	44.3894	306.75	190.288	90.8413	534.188	195.634	27.264	196.827	242.109	12.924	16.503	28.558	13.835	8192	-8191	8192	8192	254	
77704.992	1	1	0	0	222.625	223.374	198.806	6.35603	184.827	95.916	46.0944	290.291	366.053	398.976	349.726	41.476	311.976	194.49	102.361	534.221	197.547	25.577	198.139	256.080	13.861	13.310	22.049	16.051	8192	-8191	8192	8192	254	
77705.039	1	1	0	0	218.788	206.623	198.441	1.21981	178.519	102.383	30.8146	277.682	360.846	385.375	356.288	41.6058	294.909	192.49	98.3462	529.62	198.632	29.259	198.311	129.992	11.119	17.113	15.099	11.398	8192	-8191	8192	8192	254	
77705.086	1	1	0	0	227.316	223.735	183.457	3.59653	191.898	91.6724	28.0941	287.21	375.688	390.327	348.236	42.9712	321.188	193.543	94.1154	543.062	200.205	29.763	200.074	278.773	16.297	11.233	31.906	13.420	8192	-8191	8192	8192	254	
77705.133	1	1	0	0	221.472	213.715	209.545	1.48909	173.386	97.9175	27.273	300.967	369.981	382.635	355.846	42.0288	304.452	189.096	95.2163	541.582	199.613	29.202	195.576	74.266	15.516	15.378	10.761	13.567	8192	-8191	8192	8192	254	
77705.133	1	1	0	0	215.633	208.484	208.931	4.05573	176.574	101.084	30.8663	268.629	368.534	382.24	349.88	46.6731	301.101	189.312	99.1971	524.245	198.243	27.817	196.110	58.993	17.896	18.356	19.877	14.538	8192	-8191	8192	8192	254	
77705.180	1	1	0	0	211.534	225.955	223.54	7.87608	185.409	97.9602	31.2381	300.807	360.053	398.168	363.279	45.1971	311.505	191.13	97.2885	543.433	203.603	26.585	199.843	320.589	18.872	13.386	20.163	13.993	8192	-8191	8192	8192	254	
77705.227	1	1	0	0	220.467	216.432	204.49	5.03749	201.599	96.7017	24.0871	291.285	370.135	398.351	354.159	45.7548	317.683	188.043	94.8558	542.587	201.734	26.273	197.987	42.164	11.848	19.793	23.039	13.522	8192	-8191	8192	8192	254	
77705.281	1	1	0	0	217.441	207.706	199.207	7.40676	192.267	88.4947	27.4793	287.855	357.692	396.822	346.053	45.7308	310.024	194.216	95.5385	533.601	199.605	25.555	200.588	142.326	15.652	9.561	13.418	14.756	8192	-8191	8192	8192	254	
77705.352	1	1	0	0	213.367	224.093	225.898	1.21471	189.863	89.7283	29.3274	291.92	375.856	402.279	361.077	41.3317	319.784	190.51	95.6298	530.913	200.007	29.776	198.963	302.265	18.079	19.508	16.633	15.485	8192	-8191	8192	8192	254	
77705.398	1	1	0	0	201.589	208.159	210.589	3.41396	180.939	93.3203	29.4943	284.862	360.389	390.779	351.087	41.0144	308.457	197.707	95.9567	542.361	201.229	26.773	200.049	344.856	19.287	14.931	14.550	17.266	8192	-8191	8192	8192	254	
77705.445	1	1	5	0	212.44	223.623	197.749	5.92126	198.271	98.9663	28.7763	280.804	371.096	397.125	355.947	44.4038	321.736	195.774	94.1346	534.082	200.668	27.334	199.956	319.161	13.456	12.740	20.613	16.522	8192	-8191	8192	8192	254	
77705.492	1	1	0	0	222.133	218.042	202.167	3.6141	200.349	95.7531	35.645	314.02	368.784	405.678	353.885	43.9615	315.832	195.529	90.2596	548.423	198.073	29.310	197.692	262.290	8.272	19.287	18.953	12.438	8192	-8191	8192	8192	254	
77705.539	1	1	0	0	216.773	222.486	212.838	2.77052	186.587	102.712	30.1896	294.909	358.49	398.389	357.019	39.4904	309.803	195.452	96.3221	535.572	199.458	22.680	197.705	347.561	11.442	16.996	40.285	15.312	8192	-8191	8192	8192	254	
77705.594	1	1	0	0	215.487	210.613	206.626	2.2511	187.264	96.3169	31.1692	277.485	358.894	384.245	357.707	43.1106	313.279	197.606	96.8606	531.933	198.419	28.140	194.979	115.843	12.761	17.627	27.190	12.848	8192	-8191	8192	8192	254	
77705.664	1	1	0	0	210.43	204.307	203.807	6.92916	172.055	103.487	25.7325	275.031	350.481	371.457	359.702	47.3558	301.534	194.284	95.5337	528.558	203.260	28.684	199.107	349.266	12.309	16.286	3.157	14.718	8192	-8191	8192	8192	254	
77705.711	1	1	0	0	230.433	212.072	204.895	0.374926	185.028	86.2867	29.7076	269.261	373.918	398.404	352.62	46.4087	308.481	185.639	102.495	520.587	200.365	24.255	196.080	117.303	11.846	22.223	27.686	16.588	8192	-8191	8192	8192	254	
77705.758	1	1	0	0	229.833	216.525	181.482	2.06407	180.762	88.7071	31.1741	283.634	370.404	400.192	340.053	46.7163	304.976	190.26	94.7933	544.736	201.274	26.144	196.884	123.531	15.245	23.319	23.673	17.180	8192	-8191	8192	8192	254	
77705.805	1	1	0	0	217.242	229.802	194.05	3.64495	180.625	98.4387	29.7271	281.65	366.409	395.918	348.514	43.649	311.029	194.755	95.6058	526.707	198.355	29.155	198.393	334.567	15.502	20.871	19.739	13.908	8192	-8191	8192	8192	254	
77705.852	1	1	0	0	211.319	234.455	201.951	3.32156	178.756	71.7147	32.9486	282.31	354.904	404.99	354.567	44.2067	302.404	184.673	99.0625	547.865	195.176	32.674	199.880	295.948	10.772	20.757	24.413	14.196	8192	-8191	8192	8192	254	
77705.906	1	1	0	0	221.464	219.111	209.947	3.11375	180.312	92.826	37.026	290.565	371.341	388.639	360.812	40.2452	308.716	186.947	95.9183	536.486	196.247	29.582	199.407	222.782	17.174	24.294	25.545	12.177	8192	-8191	8192	8192	254	
77705.906	1	1	0	0	223.119	224.557	199.118	2.67036	180.785	89.5606	33.2198	284.119	366.481	401.014	351.495	44.851	298.861	179.462	96.851	545.067	206.203	28.545	198.438	218.683	13.605	15.822	20.349	12.585	8192	-8191	8192	8192	254	
77705.953	1	1	0	0	214.99	220.977	213.084	2.47644	172.227	90.6476	29.0524	291.754	363.082	396.707	357.303	42.6346	306.399	183.043	96.399	538.856	201.877	30.038	202.289	254.289	13.153	15.666	23.818	12.993	8192	-8191	8192	8192	254	
77706.000	1	1	0	0	207.492	209.205	210.665	1.66888	193.329	88.75	30.202	305.614	360.577	381.207	353.337	43.5817	312.115	181.534	95.2933	561.808	197.633	32.773	198.863	128.083	18.800	18.496	29.349	13.067	8192	-8191	8192	8192	254	
77706.047	1	1	0	0	195.336	214.18	194.383	1.69435	196.195	101.558	31.8079	290.088	352.202	397.505	349.077	39.8702	307.433	183.452	96.0529	536.043	199.253	27.013	196.913	60.338	12.974	19.379	26.302	15.134	8192	-8191	8192	8192	254	
77706.117	1	1	0	0	215.595	210.393	212.897	2.22143	189.926	96.4436	33.001	290.668	361.062	384.582	355.986	42.2548	310.668	189.269	95.9952	539.284	200.045	28.584	200.241	121.178	15.363	17.305	17.521	17.750	8192	-8191	8192	8192	254	
77706.164	1	1	0	0	214.25	221.628	214.463	7.88469	184.161	86.1397	30.5355	281.842	359.707	397.601	352.168	41.8077	312.495	180.976	92.2933	540.471	201.129	30.872	201.284	63.572	17.533	13.603	17.459	12.895	8192	-8191	8192	8192	254	
77706.219	1	1	0	0	229.74	212.191	199.655	2.25884	178.495	97.5304	40.1211	289.414	364.75	394.798	347.519	44.8173	307.245	190.288	97.5673	545.764	201.371	31.065	196.964	81.784	14.967	18.955	40.119	13.920	8192	-8191	8192	8192	254	
77706.266	1	1	0	0	227.85	219.894	201.555	1.91464	181.909	100.535	30.412	292.216	365.442	393.082	346.221	44.899	300.029	194.764	99.0817	558.197	201.222	25.543	197.054	185.292	15.845	15.349	25.188	11.449	8192	-8191	8192	8192	254	
77706.312	1	1	0	0	203.461	217.151	193.632	6.27317	194.101	91.74	32.2102	290.765	348.683	394.106	346.188	44.3558	308.865	188.005	84.6731	534.971	205.727	26.058	204.167	18.407	16.766	20.520	6.965	15.895	8192	-8191	8192	8192	254	
77706.359	1	1	0	0	202.837	199.129	206.305	5.29389	192.839	100.917	28.186	282.405	348.668	390.673	346.457	41.4712	298.918	191.029	87.6442	531.365	200.381	27.255	197.682	119.284	14.021	17.806	12.413	15.433	8192	-8191	8192	8192	254	
77706.406	1	1	0	0	219.737	203.678	191.053	3.25601	174.886	89.8188	30.2368	307.81	362.163	379.014	347.601	38.0048	301.534	180.264	94.5433	543.01	199.824	28.973	197.698	152.107	12.494	14.050	22.525	13.598	8192	-8191	8192	8192	254	
77706.453	1	1	0	0	220.523	212.186	213.963	8.58784	187.627	92.3073	25.1968	292.638	361.01	382.37	353.466	39.2644	304.159	181.351	88.8702	543.529	199.993	32.264	195.765	231.415	14.607	15.997	20.830	15.683	8192	-8191	8192	8192	254	
77706.523	1	1	0	0	223.906	212.67	198.13	2.61095	188.068	88.7851	36.3339	293.714	355.207	396.202	337.764	37.2404	308.043	179.207	87.4375	546.312	196.996	28.193	199.169	238.824	12.048	21.911	20.330	18.821	8192	-8191	8192	8192	254	
77706.570	1	1	0	0	221.181	207.624	202.755	5.72526	197.939	83.2072	28.8665	288.19	353.034	382.822	352.221	39.1923	307.558	177.495	89.8125	527.13	199.263	26.553	197.503	291.884	12.525	20.750	17.814	13.648	8192	-8191	8192	8192	254	
77706.625	1	1	0	0	207.981	211.632	202.386	4.77694	182.663	81.5548	30.9382	287.67	361.899	382.072	350.312	43.1731	304.548	174	88.8894	534.346	201.251	30.853	197.918	242.400	17.131	17.680	14.148	16.358	8192	-8191	8192	8192	254	
77706.672	1	1	0	0	223.872	209.455	211.912	4.32285	192.098	97.6299	43.7853	308.449	358.341	393.582	342.817	38.1538	310.75	187.188	88.1058	551.409	199.481	29.122	200.216	54.830	16.484	16.550	8.214	14.984	8192	-8191	8192	8192	254	
77706.672	1	1	0	0	228.088	212.636	201.082	5.93914	173.348	96.4657	32.7282	298.116	366.851	387.769	350.014	35.8317	303.019	190.019	88.0288	550.505	198.959	30.945	199.497	313.949	9.938	16.776	19.000	14.182	8192	-8191	8192	8192	254	
77706.719	1	1	0	0	205.257	203.129	201.575	6.58683	184.428	92.0028	27.8366	279.445	345.139	384.221	347.851	38.8462	304.543	183.442	87.6683	525.76	198.899	30.791	198.458	299.038	14.935	15.377	23.664	11.240	8192	-8191	8192	8192	254	
77706.766	1	1	0	0	210.153	219.005	208.689	2.85157	171.922	78.284	30.3	281.879	351.798	388.019	346.596	41.2596	300.106	174.832	91.4038	537.163	195.061	27.937	196.991	266.780	16.690	26.928	15.557	11.682	8192	-8191	8192	8192	254	
77706.812	1	1	0	0	211.669	218.626	200.038	1.96185	186.22	93.9049	23.947	299.02	356.317	377.63	345.159	46.0144	306.798	185.202	87.9567	520.062	203.881	26.118	199.430	87.304	14.362	19.727	14.917	15.537	8192	-8191	8192	8192	254	
77706.883	1	1	0	0	231.142	210.917	204.046	6.1155	189.772	85.6329	21.3923	286.079	368.038	375.442	350.774	37.1971	297.346	186.115	86.1731	534.264	199.893	33.340	199.146	323.895	14.775	12.392	24.764	14.602	8192	-8191	8192	8192	254	
77706.938	1	1	0	0	224.329	221.853	206.874	7.42019	183.66	102.466	34.9199	297.674	358.889	389.75	341.683	40.4327	297.644	189.173	93.1058	556.928	199.798	29.464	199.172	225.889	15.827	16.743	18.133	14.198	8192	-8191	8192	8192	254	
77706.984	1	1	0	0	213.166	222.098	205.436	6.172	181.754	92.1364	45.5337	274.284	355.726	401.26	357.476	40.9712	307.38	184.481	97.6298	528.678	199.450	28.770	196.114	65.410	12.201	13.785	26.415	10.324	8192	-8191	8192	8192	254	
77707.031	1	1	0	0	202.637	212.026	201.596	3.96164	171.334	91.6755	27.4286	287.855	352.591	388.865	352.144	38.5192	305.327	195.293	89.7452	534.966	200.666	27.553	199.780	72.299	14.826	17.339	18.637	13.758	8192	-8191	8192	8192	254	
77707.078	1	1	0	0	209.634	205.904	190.398	6.50033	189.592	89.1429	33.0106	293.757	364.202	382.894	356.562	41.8558	303.817	183.014	94.0481	544.976	198.687	28.524	199.342	345.595	11.381	10.280	5.420	16.326	8192	-8191	8192	8192	254	
77707.125	1	1	0	0	220.295	217.201	205.595	6.19113	196.792	95.9083	30.4002	297.194	372.5	389.188	353.221	47.3365	308.798	193.428	93.9423	546.957	202.326	30.269	203.115	39.718	17.423	18.735	10.040	14.097	8192	-8191	8192	8192	254	
77707.172	1	1	0	0	220.975	216.978	197.055	6.62597	167.71	94.3649	30.3025	284.694	360.163	389.048	348.562	43.9087	297.995	189.817	91.3221	548.341	199.822	30.140	196.752	103.605	11.545	24.011	30.254	14.139	8192	-8191	8192	8192	254	
77707.219	1	1	0	0	218.409	214.41	206.866	1.10013	175.782	93.6424	31.427	278.718	369.721	392.986	345.442	46.101	298.159	187.274	96.4375	529.74	198.072	28.870	198.107	117.929	10.191	16.900	30.665	15.194	8192	-8191	8192	8192	254	
77707.297	1	1	0	0	225.796	214.918	196.361	3.46342	195.746	95.9054	27.2878	289.783	361.01	381.817	346.808	41.4375	310.957	193.938	92.7067	533.798	200.383	29.095	196.935	311.221	15.062	16.332	13.401	13.938	8192	-8191	8192	8192	254	
77707.344	1	1	0	0	213.143	225.545	207.145	6.13098	189.938	88.383	33.3648	248.938	363.188	398.288	350.923	46.2933	309.346	183.072	94.0721	526.303	202.848	27.973	202.734	57.785	17.466	17.046	22.779	15.860	8192	-8191	8192	8192	254	
77707.391	1	1	0	0	199.957	209.424	193.928	7.28053	175.332	91.6367	38.1869	294.861	349.356	379.971	342.577	42.1346	301.62	189.841	96.2692	537.394	201.588	26.533	201.769	64.361	9.565	23.000	17.383	15.164	8192	-8191	8192	8192	254	
77707.438	1	1	0	0	215.956	194.899	212.29	4.02725	168.455	98.1665	28.0766	278.037	362.317	380.87	357.308	45.0385	297.288	183.928	98.0433	544.615	197.635	29.343	198.064	20.022	14.357	19.528	22.902	14.550	8192	-8191	8192	8192	254	
77707.438	1	1	0	0	202.081	216.052	204.791	6.64014	191.355	84.0733	25.0634	304.194	355.63	394.149	348.558	43.6106	309.192	183.582	98	547.846	197.327	28.389	197.136	194.657	15.439	12.156	22.372	16.399	8192	-8191	8192	8192	254	
77707.484	1	1	0	0	212.855	208.687	200.339	1.72397	191.287	86.4257	31.2143	278.912	365.216	386.202	347.947	42.4952	305.846	178.788	92.1875	540.793	199.514	33.050	200.827	209.373	10.354	17.069	16.590	13.272	8192	-8191	8192	8192	254	
77707.531	1	1	0	0	211.319	205.287	199.692	6.93079	180.05	77.8533	37.923	270.803	355.144	376.553	355.303	45.6635	307.933	182.764	98.6298	528.284	200.223	25.005	198.578	267.929	17.348	15.062	15.815	17.192	8192	-8191	8192	8192	254	
77707.578	1	1	0	0	217.03	226.743	187.243	3.77373	194.841	85.9285	17.9327	291.262	362.803	397.553	338.188	44.2692	306.933	184.091	91.2067	540.298	195.424	28.331	200.667	87.527	16.293	19.613	17.732	12.539	8192	-8191	8192	8192	254	
77707.633	1	1	0	0	206.837	223.54	190.938	3.62224	185.308	92.7579	29.2292	277.954	363.24	389.284	343.029	46.3942	306.087	182.668	94.8125	531.005	201.197	28.653	201.823	300.891	13.156	18.926	22.132	13.596	8192	-8191	8192	8192	254	
77707.680	1	1	0	0	221.79	205.725	202.074	2.96837	186.232	99.9155	31.9867	287.191	368.413	384.923	339.788	42.3221	307.154	186.918	94.1154	541.433	199.249	28.560	198.277	289.634	14.197	19.864	12.601	12.597	8192	-8191	8192	8192	254	
77707.750	1	1	0	0	220.179	210.083	204.118	2.42584	179.861	99.7897	26.5234	284.114	364.981	389.212	345.639	42.2644	306.731	185.615	90.6442	532.178	197.993	27.269	193.594	23.664	12.578	20.545	26.061	14.841	8192	-8191	8192	8192	254	
77707.797	1	1	0	0	205.034	220.675	201.635	3.34792	196.825	86.5752	21.6398	298.446	351.279	390.029	356.332	40.4279	319.99	184.428	93.2837	539.457	200.597	26.169	197.210	157.741	15.294	16.337	27.089	13.025	8192	-8191	8192	8192	254	
77707.844	1	1	0	0	226.366	192.462	209.28	2.77115	170.941	105.998	34.7169	289.938	365.091	375.212	348.404	42.0769	305.808	193.087	93.351	535.596	202.317	29.305	200.115	182.027	15.555	18.123	23.067	16.608	8192	-8191	8192	8192	254	
77707.898	1	1	0	0	226.098	208.828	210.166	1.67437	179.84	90.7325	28.7036	284.679	370.803	385.99	356.418	41.9856	301.635	185.779	95.0769	539.5	202.090	28.782	199.465	238.156	17.608	21.950	20.543	14.682	8192	-8191	8192	8192	254	
77707.945	1	1	0	0	215.72	217.893	213.088	3.23272	177.874	105.623	38.202	290.734	361.106	387.038	350.625	43.7596	296.904	193.255	94.3317	544.433	199.361	27.497	197.855	99.752	15.091	16.976	28.755	16.161	8192	-8191	8192	8192	254	
77707.992	1	1	0	0	226.278	222.565	196.72	6.73117	159.822	100.947	36.5209	289.987	366.538	395.168	334.361	44.1683	296.986	187.312	99.3702	531.51	199.102	29.560	199.631	89.112	14.112	18.237	21.650	13.291	8192	-8191	8192	8192	254	
77708.062	1	1	0	0	213.722	233.188	197.942	1.86579	188.425	84.7624	26.3615	280.36	359.76	399.716	350.399	41.3173	309.452	185.894	91.4519	531.048	199.258	25.677	196.644	135.230	11.920	19.421	15.508	15.590	8192	-8191	8192	8192	254	
77708.109	1	1	0	0	211.717	196.974	185.704	2.02686	182.282	96.0198	24.8797	282.826	354.125	380.947	341.582	40.3558	308.139	192.337	99.2692	537.293	201.687	25.713	200.965	272.909	13.844	19.505	10.680	13.350	8192	-8191	8192	8192	254	
77708.156	1	1	0	0	220.785	229.6	198.388	5.94831	180.394	90.3267	34.8505	290.673	356.077	392.043	354.288	46.6394	305.365	190.615	96.8173	533.274	198.613	29.379	194.120	57.488	13.874	17.131	21.049	14.026	8192	-8191	8192	8192	254	
77708.203	1	1	0	0	223.97	211.694	186.134	2.83938	171.384	88.2899	34.3699	296.81	370.12	392.812	348.635	43.8558	301.356	187.053	97.0144	553.231	201.777	24.796	196.740	307.362	13.262	17.780	19.314	12.335	8192	-8191	8192	8192	254	
77708.203	1	1	0	0	210.238	214.546	192.539	1.77253	178.84	97.4421	28.8606	273.572	355.697	394.466	339.327	38.9904	301.226	192.769	99.0337	537.202	201.595	29.551	201.527	305.310	10.214	15.887	39.508	13.698	8192	-8191	8192	8192	254	
77708.258	1	1	0	0	215.764	223.451	214.146	6.90485	202.35	96.5081	24.9394	274.721	357.12	396.111	363.452	44.4712	323.938	191.591	89.7404	528.433	199.688	27.352	198.783	59.045	13.826	10.512	42.373	11.677	8192	-8191	8192	8192	254	
77708.305	1	1	0	0	230.266	229.625	185.495	3.87706	167.978	95.7241	35.3466	294.144	380.99	403.947	340.245	47.8558	300.524	188.683	96.0721	552.865	197.369	30.854	195.848	352.490	14.613	20.146	24.809	14.341	8192	-8191	8192	8192	254	
77708.352	1	1	0	0	210.475	210.583	209.218	7.177	183.335	89.179	31.912	287.364	363.889	386.587	355.447	45.1394	306.899	187.428	97.3654	546.784	200.159	26.634	198.098	342.300	14.336	16.126	6.687	15.702	8192	-8191	8192	8192	254	
77708.422	1	1	0	0	218.741	220.55	199.229	4.60034	187.047	94.1814	29.996	309.964	362.341	401.582	346.399	44.8077	315.178	187.183	96.6827	552.462	203.863	27.667	199.381	230.641	17.531	16.361	22.603	15.225	8192	-8191	8192	8192	254	
77708.469	1	1	0	0	216.386	198.213	210.383	7.0903	176.472	90.2627	35.5628	290.458	371.832	385.942	350	45.1587	312.389	191.438	100.481	545.308	200.325	32.828	198.949	5.641	11.564	15.471	25.862	15.840	8192	-8191	8192	8192	254	
77708.516	1	1	0	0	217.849	228.431	203.593	5.42165	183.24	90.4067	36.9426	274.451	365.332	406.904	349.385	40.5962	310.538	192.861	97.5577	525.606	196.979	27.017	193.851	189.926	13.336	16.831	20.987	13.945	8192	-8191	8192	8192	254	
77708.562	1	1	0	0	219.64	225.969	211.971	2.66522	188.002	86.161	37.9279	295.387	367.019	400.663	358.942	47.3413	315.207	190.144	100.524	539.005	196.902	26.098	199.875	34.033	13.267	22.563	31.568	12.865	8192	-8191	8192	8192	254	
77708.617	1	1	0	0	220.059	211.402	204.982	1.47629	194.777	84.7107	31.1414	287.843	364.861	398.082	350.808	44.6202	317.019	194.438	94.0721	538.798	202.870	29.986	199.294	64.982	16.075	20.398	25.760	15.008	8192	-8191	8192	8192	254	
77708.664	1	1	0	0	221.512	220.589	201.24	3.49256	168.984	92.9306	28.8226	293.783	373.625	397.591	344.909	43.4904	300.49	193.933	99.0673	550.601	202.160	26.692	201.307	77.197	17.641	26.345	20.957	13.728	8192	-8191	8192	8192	254	
77708.734	1	1	0	0	211.597	210.01	209.113	1.21104	192.209	101.604	41.835	295.858	374.649	400.029	353.231	46.524	311.625	196.587	101.63	541.625	202.855	26.951	197.442	357.464	18.161	15.047	31.471	15.328	8192	-8191	8192	8192	254	
77708.781	1	1	0	0	219.684	208.393	199.728	4.30398	175.198	92.6988	33.0636	303.255	360.048	387.389	355.418	48.1538	303.043	193.274	99.7212	557.625	194.289	25.128	201.152	162.231	13.955	21.646	17.704	16.175	8192	-8191	8192	8192	254	
77708.828	1	1	0	0	222.932	220.391	198.494	3.84614	175.938	91.7184	40.7855	278.991	373.755	393.885	344.784	46.2837	307.913	191.582	101.005	531.087	200.308	30.910	200.061	4.892	10.812	18.133	17.286	12.761	8192	-8191	8192	8192	254	
77708.883	1	1	0	0	229.751	221.171	206.019	2.54778	174.359	85.1447	32.5881	284.54	373.01	398.356	352.697	47.3846	308.144	186.111	93.8846	536.058	198.485	24.404	197.609	2.343	12.527	19.032	21.448	16.530	8192	-8191	8192	8192	254	
77708.930	1	1	6	0	208.151	223.892	209.239	2.8	184.256	96.1629	25.1807	281.818	357.385	399.394	342.462	44.601	310.082	195.197	97.5481	536.534	199.153	26.018	200.867	230.332	13.064	26.705	28.327	14.016	8192	-8191	8192	8192	254	
77708.977	1	1	0	0	197.592	204.625	207.424	2.61084	185.76	87.9847	35.0008	301.05	359.966	377.928	366.183	44.6971	309.885	191.385	98.7452	552.077	194.804	29.064	196.985	353.250	12.771	16.311	12.005	15.946	8192	-8191	8192	8192	254	
77708.977	1	1	0	0	207.642	221.981	200.937	4.97742	196.901	91.3646	29.8727	298.001	355.827	387.495	353.514	44.0481	308.769	183.865	92.524	549.957	200.375	28.134	202.087	22.009	14.321	17.132	7.858	15.042	8192	-8191	8192	8192	254	
77709.023	1	1	0	0	229.727	218.399	220.108	3.86902	194.797	79.9226	31.6555	286.561	377.889	397.082	363.322	46.7981	317.327	187.038	93.8413	542.788	199.533	30.523	195.277	203.586	16.089	17.867	16.623	12.071	8192	-8191	8192	8192	254	
77709.070	1	1	0	0	212.283	195.243	213.427	3.66124	185.314	104.341	43.4029	286.406	361.312	385.284	352.202	46.6923	313.75	194.029	97.8221	553.351	201.128	26.849	203.662	10.625	15.011	23.217	20.582	14.249	8192	-8191	8192	8192	254	
77709.117	1	1	0	0	214.268	208.073	207.238	6.67629	183.73	90.3227	34.5802	258.588	366.856	387.894	346.716	45.8462	305.212	189.548	90.7692	530.053	199.055	29.754	200.872	342.996	16.231	17.122	13.950	15.647	8192	-8191	8192	8192	254	
77709.188	1	1	0	0	216.33	217.7	209.513	3.27368	181.442	103.804	31.7036	289.575	367.423	389.755	357.952	42.9038	306.611	189.928	95.5144	547.663	200.072	30.946	198.471	103.912	15.554	23.032	19.960	15.761	8192	-8191	8192	8192	254	
77709.242	1	1	0	0	209.865	231.068	195.226	6.03442	179.02	92.0022	31.673	268.729	363.947	389.808	347.337	45.774	309.534	189.096	94.7452	519.538	203.772	28.756	199.117	220.844	13.292	16.452	31.430	15.224	8192	-8191	8192	8192	254	
77709.289	1	1	0	0	215.546	211.364	194.425	4.62652	171.556	95.2298	31.9902	292.571	361.668	390.37	355.375	50.101	294.76	188.457	92.7308	533.514	200.705	28.648	198.200	339.366	10.445	19.676	25.746	15.912	8192	-8191	8192	8192	254	
77709.336	1	1	0	0	230.024	221.82	210.598	7.60739	194.869	92.0922	40.5098	290.939	370.077	387.764	359.957	44.125	304.332	187.168	99.7788	552.452	201.356	27.035	195.080	355.779	11.445	10.922	25.826	14.352	8192	-8191	8192	8192	254	
77709.383	1	1	0	0	246.511	193.202	204.756	12.4388	193.459	79.7791	32.153	281.175	383.202	380.822	353.163	51.1298	324.486	192.986	102.375	548.986	200.702	30.367	200.610	51.972	14.361	17.963	8.626	13.211	8192	-8191	8192	8192	254	
77709.430	1	1	0	0	236.489	202.561	199.644	5.19785	184.412	99.7578	24.6517	289.968	390.798	404.803	370.837	68.4567	335.981	221.024	121.966	569.125	203.407	29.859	194.492	134.394	14.522	15.559	23.376	14.622	8192	-8191	8192	8192	254	
77709.500	1	1	0	0	217.112	219.061	212.16	2.58641	186.605	108.911	34.079	302.779	391.832	425.077	383.308	79.1779	340.962	243.212	152.486	613.837	200.423	26.848	200.095	50.809	14.939	12.743	18.337	16.150	8192	-8191	8192	8192	254	
77709.555	1	1	0	0	220.758	218.182	192.673	6.19331	167.348	83.2924	31.6336	284.95	422.13	450.697	426.279	113.418	370.966	258.317	161.817	605.471	202.188	28.737	195.921	303.722	11.401	21.929	32.161	17.186	8192	-8191	8192	8192	254	
77709.602	1	1	0	0	223.857	225.938	213.86	5.12873	183.271	86.9431	34.7979	268.381	425.452	450.053	425.438	106.957	366.928	244.26	143.99	585.889	196.255	30.948	203.104	187.807	13.939	17.305	44.409	15.216	8192	-8191	8192	8192	254	
77709.648	1	1	0	0	203.727	212.022	205.238	0.751988	177.979	98.1847	34.6594	279.479	400.596	436.591	391.183	86.0529	344.226	225.082	131.433	561.149	203.318	30.143	195.762	69.941	16.521	19.764	12.324	13.077	8192	-8191	8192	8192	254	
77709.695	1	1	0	0	227.912	218.837	214.791	4.70947	180.829	99.9301	30.6543	290.641	406.952	420.577	375.423	66.0481	332.01	214.567	119.159	564.721	200.674	28.814	196.918	331.285	19.072	23.287	33.379	14.986	8192	-8191	8192	8192	254	
77709.742	1	1	0	0	218.574	216.975	224.789	1.95343	193.037	97.9708	32.5546	284.65	391.014	417.553	384.255	61.8221	336.505	203.707	108.231	550.577	199.363	31.356	197.367	157.415	12.694	17.801	26.085	12.770	8192	-8191	8192	8192	254	
77709.742	1	1	0	0	213.329	201.719	208.628	2.91484	183.116	98.194	26.4357	300.031	369.101	400.75	365.63	59.2404	330.745	206.644	105.548	558.606	201.380	32.289	198.820	218.155	15.995	20.798	25.782	12.769	8192	-8191	8192	8192	254	
77709.789	1	1	0	0	209.758	233.379	211.077	4.71829	172.065	92.8065	31.2886	287.809	376.572	410.514	372.558	57.024	319.654	212.659	116.861	554.106	201.201	28.191	197.451	285.109	14.649	9.987	30.648	9.503	8192	-8191	8192	8192	254	
77709.836	1	1	0	0	209.783	221.575	201.818	6.02469	191.608	111.223	27.8923	288.235	395.558	434.385	387.808	90.5385	362.49	250.899	159.673	614.562	202.572	26.907	194.860	325.532	12.870	24.560	28.885	16.920	8192	-8191	8192	8192	254	
77709.891	1	1	0	0	214.835	214.732	206.89	11.0064	180.743	94.6144	32.6573	301.69	446.351	481.774	453.692	138.178	421.962	308.202	221.5	713.562	204.045	24.412	200.176	311.994	10.772	17.845	21.161	14.667	8192	-8191	8192	8192	254	
77709.961	1	1	0	0	215.639	226.74	194.988	15.3669	177.786	86.4097	23.1334	291.05	538.312	613.293	582.135	306.303	597.817	496.269	408.62	856.216	199.497	32.492	200.456	174.909	14.073	19.488	1.917	10.019	8192	-8191	8192	8192	254	
77710.008	1	1	0	0	205.762	212.162	181.642	20.9358	178.615	101.175	26.5323	282.478	687.255	723.591	682.615	352.13	644.159	513.091	417.51	852.452	199.994	32.185	202.238	138.774	20.208	15.967	35.394	14.560	8192	-8191	8192	8192	254	
77710.055	1	1	0	0	210.138	219.111	180.698	6.92294	181.987	81.3927	32.4843	275.264	679.712	717.769	662.654	363.308	621.341	491.524	401.231	858.452	197.916	29.432	198.231	359.396	9.088	30.156	41.802	17.534	8192	-8191	8192	8192	254	
77710.102	1	1	0	0	228.409	211.528	209.911	18.6126	192.173	84.5015	27.1332	268.134	674.822	688.707	660.38	364.817	634.745	507.995	424.375	854.99	204.388	27.100	206.172	114.107	6.526	29.536	11.354	13.327	8192	-8191	8192	8192	254	
77710.148	1	1	0	0	232.959	224.956	209.952	8.52446	175.014	83.4258	36.6021	309.148	692.12	748.111	705.928	380.202	642.087	523.014	443.486	895.048	199.641	35.144	197.008	208.940	12.283	15.483	31.115	14.035	8192	-8191	8192	8192	254	
77710.195	1	1	0	0	199.233	200.068	203.116	13.3625	186.386	87.5641	43.9216	291.781	725.793	746.067	703.495	402.596	673.572	563.365	454.269	910.865	199.444	23.011	196.262	160.895	10.935	17.021	9.877	13.940	8192	-8191	8192	8192	254	
77710.273	1	1	0	0	232.347	215.646	191.145	13.3367	176.778	86.916	32.8189	276.576	740.928	764.322	742.51	429.462	690.312	577.423	478.611	924.183	199.408	29.474	202.479	8.104	22.762	17.545	16.698	15.071	8192	-8191	8192	8192	254	
77710.320	1	1	0	0	215.34	231.158	198.327	12.1203	199.035	96.8867	32.9165	304.679	746.587	793.452	743.005	444.745	703.447	575.139	487.341	971.567	197.011	27.710	199.834	153.574	8.704	26.401	39.035	10.696	8192	-8191	8192	8192	254	
77710.367	1	1	0	0	236.819	222.393	227.867	10.8393	201.121	99.1345	33.7407	238.659	794.207	797.183	785.245	445.231	730.808	563.861	463.793	768.572	203.022	26.859	197.848	251.217	13.456	13.637	33.043	8.873	8192	-8191	8192	8192	254	
77710.414	1	1	0	0	125.137	53.8745	20.0695	11.3071	10.37	5.90545	4.95898	7.06544	459.159	309.827	229.755	162.654	155.514	160.178	149.625	149.538	202.124	27.307	213.027	239.741	354.281	356.443	181.919	228.606	8192	-8191	8192	8192	254	
77710.461	1	1	0	65536	4.38371	7.86455	3.76586	8.56056	18.8438	20.8119	107.422	168.312	137.082	144.688	153.447	159.923	252.827	1034.44	8173.42	30078.1	176.058	281.532	151.963	264.457	153.728	123.581	148.086	117.562	8192	-8191	8192	8192	254	
77710.508	1	1	0	65536	53.2419	50.0287	98.6653	76.4194	120.372	18.6473	0	0	26701.8	23358.1	26767.2	30375.5	31922.8	32677.9	32767	32767	113.346	298.563	159.343	359.493	96.935	245.801	180.000	180.000	8192	-8191	8192	8192	254	
77710.508	1	1	0	65536	0	0	0	0	0	0	0	0	32767	32767	32767	32767	32767	32767	32767	32767	180.000	180.000	180.000	180.000	180.000	180.000	180.000	180.000	8192	-8191	8192	8192	254	
77710.555	1	1	0	65536	0	0	0	0	0	9.52102	0.5625	252.543	32767	32767	32767	32767	32767	32757.4	32766.7	27581.3	180.000	180.000	180.000	180.000	180.000	55.549	96.942	301.271	8192	-8191	8192	8192	254	
77710.633	1	1	0	65536	223.478	27.8166	22.6236	24.2416	79.7016	89.1654	127.653	27.8639	12718.4	3544.38	2891.88	3305.07	5451.47	14705.4	24037	30552.8	298.788	239.472	198.173	237.618	103.895	81.080	97.668	341.428	8192	-8191	8192	8192	254	
77710.680	1	1	0	65536	0	0	6.01519	164.333	167.964	103.001	7.32403	6.63376	32767	32767	32764	22631.4	13681.2	3461.4	1091.44	1207.7	180.000	180.000	223.769	329.573	266.775	295.708	203.074	9.669	8192	-8191	8192	8192	254	
77710.727	1	1	0	0	33.9528	36.3111	12.4511	29.9118	29.7866	17.0905	5.3586	9.67797	1274	1257.92	1234.94	1228.19	1220.05	1232.27	1244.83	1242.69	279.162	334.294	299.459	344.908	127.794	75.240	48.928	240.535	8192	-8191	8192	8192	254	
77710.773	1	1	0	0	17.4083	16.4231	1.27701	6.90012	36.4273	32.7744	16.6395	13.5934	1270.77	1258.27	1296.24	1285.21	1319.87	1301.76	1305.34	1356.02	142.832	2.139	321.669	151.456	217.244	268.974	351.788	132.517	8192	-8191	8192	8192	254	
77710.820	1	1	0	0	11.281	6.5115	41.6721	25.4338	26.245	9.36401	23.4707	31.02	1332.55	1344.75	1378.31	1369.66	1394.2	1383.84	1393.15	1419.97	328.129	99.277	199.692	210.766	240.292	236.478	348.730	67.245	8192	-8191	8192	8192	254	
77710.867	1	1	0	0	20.1614	19.6823	16.8706	6.07187	22.5389	63.2286	53.16	1.2724	1462.18	1337.06	1122.16	1075.07	1034.35	1768.18	7673.16	6398.59	240.241	157.973	280.182	305.100	46.761	95.372	324.953	78.357	8192	-8191	8192	8192	254	
77710.922	1	1	0	0	34.1567	14.1807	43.836	25.9025	25.172	6.96282	12.4001	9.21953	4936.97	3625.29	2595.7	1898.64	1457.53	1130.1	920.375	746.188	190.321	196.709	316.678	93.632	6.395	7.684	180.803	224.777	8192	-8191	8192	8192	254	
77710.969	1	1	0	0	17.5743	13.8064	10.6184	7.58284	5.6306	20.8905	8.16876	11.3153	576.192	439.817	342.072	272.188	240.755	227.938	224.418	215.317	118.644	23.973	258.679	210.050	151.254	133.486	304.132	324.635	8192	-8191	8192	8192	254	
77711.016	1	1	0	0	11.1412	2.14756	8.84687	9.84457	6.46965	16.2576	6.43857	3.72682	214.192	203.284	201.312	195.183	191.875	184.466	183	178.803	50.967	316.255	15.703	223.958	246.690	344.138	293.631	111.626	8192	-8191	8192	8192	254	
77711.062	1	1	0	0	10.1567	6.66724	6.85011	11.6636	10.1176	9.26541	8.27016	3.67543	178.688	174.745	155.317	154.668	147.558	149.279	141.144	130.808	196.791	266.529	16.333	257.704	241.066	269.919	213.725	252.639	8192	-8191	8192	8192	254	
77711.133	1	1	0	0	3.38936	6.91344	5.25898	6.09002	4.20928	6.87751	4.64153	6.19243	127.769	124.692	120.255	125.726	121.918	120.255	122.188	115.808	60.690	289.683	318.654	201.771	246.251	198.183	304.559	310.882	8192	-8191	8192	8192	254	
77711.180	1	1	0	0	4.1794	11.5731	5.01084	5.96521	4.78278	3.98759	3.86242	3.21157	118.909	114.519	115.37	120.428	114.75	116.75	132	129.678	329.490	42.087	200.133	245.253	74.304	168.693	265.054	263.845	8192	-8191	8192	8192	254	
77711.234	1	1	0	0	12.1893	22.8711	25.1136	10.5652	68.4323	38.1319	8.45421	93.3472	144.37	214.433	392.798	421.303	515.981	490.312	469.899	596.875	195.212	37.780	186.774	32.779	15.922	23.373	36.820	12.982	8192	-8191	8192	8192	254	
77711.281	1	1	0	0	56.3642	58.0672	72.0371	14.6778	64.4389	28.0401	20.7819	97.9652	547.663	545.822	531.495	453.216	527.375	493.952	472.375	614.202	206.726	13.912	190.471	124.767	15.983	14.646	48.968	14.343	8192	-8191	8192	8192	254	
77711.281	1	1	0	0	59.6396	71.8404	56.5118	19.0506	60.909	27.2828	25.9027	87.3271	559.37	550.981	545.678	440.096	541.433	494.769	458.769	608.048	196.087	16.078	206.988	246.555	23.989	12.821	304.102	19.044	8192	-8191	8192	8192	254	
77711.328	1	1	0	0	74.7007	62.654	58.4847	7.38408	53.8407	51.4309	22.5624	110.073	547.524	559.365	528.913	434.062	532.726	477.76	434.692	589.625	188.397	35.356	196.216	8.760	12.212	36.510	57.611	21.049	8192	-8191	8192	8192	254	
77711.398	1	1	0	0	67.1544	83.9974	41.027	14.2687	74.2755	49.25	3.44356	92.8177	520.091	507.288	491.846	387.207	461.846	410.851	394.413	514.615	196.727	36.425	199.617	322.166	9.381	354.967	90.119	22.471	8192	-8191	8192	8192	254	
77711.445	1	1	0	0	80.5702	73.0093	63.519	10.5652	66.6678	36.6073	13.123	91.4734	449.841	450.495	414.067	314.534	387.438	334.562	291.495	435.067	213.461	26.126	186.813	355.221	18.099	15.199	31.627	14.672	8192	-8191	8192	8192	254	
77711.492	1	1	0	0	71.4841	62.055	58.4494	7.3651	61.0287	46.831	14.8044	99.8005	366.423	366.13	342.553	240.212	308.75	263.236	214.654	361.625	197.339	28.680	205.719	279.278	12.732	26.177	306.869	15.113	8192	-8191	8192	8192	254	
77711.547	1	1	0	0	68.4749	70.4896	65.8678	9.18168	60.8949	28.9116	9.11758	87.0555	273.63	285.63	267.76	159.784	233.351	193.572	154.087	283.587	203.530	33.697	218.081	51.358	12.748	29.655	10.574	21.525	8192	-8191	8192	8192	254	
77711.594	1	1	0	0	57.0406	51.9542	56.4351	8.22698	60.6365	30.0779	10.3632	91.1651	202.673	210.534	200.649	107.803	177.788	145.26	110.163	238.812	205.955	19.229	203.248	212.854	25.168	27.555	39.938	24.852	8192	-8191	8192	8192	254	
77711.641	1	1	0	0	74.2726	63.6742	48.8905	6.73242	58.0551	27.9351	3.93581	85.5501	168.279	175.183	163.149	77	143.947	117.043	79.5625	202.913	207.154	33.391	212.395	171.009	16.455	6.410	111.542	18.453	8192	-8191	8192	8192	254	
77711.688	1	1	0	0	62.9936	49.2905	42.6274	3.2395	55.5573	32.6724	5.59888	86.4942	147.846	160.438	143.404	60.2019	134.462	99.3846	74.3317	204.197	208.727	35.432	208.290	221.243	23.610	28.344	350.254	13.252	8192	-8191	8192	8192	254	
77711.734	1	1	0	0	55.9518	57.8855	59.3303	2.07456	46.4413	19.449	13.3812	88.9379	141.332	149.938	148.769	64.0817	140.269	105.716	81.1731	219.726	209.921	36.947	207.078	336.785	10.588	20.143	24.887	25.892	8192	-8191	8192	8192	254	
77711.805	1	1	0	0	46.9967	51.6762	49.9801	6.69286	44.8855	28.4363	1.08236	92.8764	149.481	166.346	160.375	80.9087	153.216	130.817	103.01	242.361	216.950	38.423	210.967	252.253	17.287	29.350	188.952	18.921	8192	-8191	8192	8192	254	
77711.852	1	1	0	0	53.5995	54.5039	53.6328	2.25913	65.9471	17.9827	3.93294	102.481	184.168	189.572	187.221	99.2644	173.5	131.995	108.389	238.538	201.310	33.561	200.549	120.210	21.779	47.625	289.787	21.257	8192	-8191	8192	8192	254	
77711.898	1	1	0	0	76.2412	55.1481	50.9932	7.88727	52.9465	31.2004	10.5159	76.4518	182.625	180.764	166.038	85.6202	153.087	111.702	83.5721	204.13	200.021	28.607	206.123	288.206	28.968	22.817	2.660	16.980	8192	-8191	8192	8192	254	
77711.953	1	1	0	0	49.0332	54.9381	60.6421	6.43267	53.0826	32.1478	19.4717	80.9026	143.764	150.514	136.88	55.3125	129.173	96.6731	61.0673	182.476	200.924	35.853	206.643	99.508	16.969	27.703	18.829	16.201	8192	-8191	8192	8192	254	
77712.000	1	1	0	0	66.4875	55.5504	48.6064	4.18819	49.6961	19.9495	14.1387	80.1084	134.226	135.529	118.514	42.4231	120.106	81.4471	61.8413	178.822	198.429	37.262	204.667	72.203	5.961	32.732	20.358	19.649	8192	-8191	8192	8192	254	
77712.047	1	1	0	0	59.5735	56.5742	46.9328	6.58893	51.0806	29.6526	8.93762	91.2173	132.673	138.288	123.303	46.2885	117.298	84.1971	55.0769	191.611	208.693	37.438	204.689	31.333	18.511	29.341	343.543	20.640	8192	-8191	8192	8192	254	
77712.047	1	1	0	0	57.972	59.7314	55.3593	4.82407	48.6202	20.8275	8.81721	83.3336	139.438	134.178	124.111	43.1394	110.216	82.7067	63.3894	187.274	205.115	27.168	206.236	273.128	19.179	17.511	0.414	18.923	8192	-8191	8192	8192	254	
77712.094	1	1	0	0	62.5021	60.1218	51.4419	3.26044	55.7733	28.9467	8.42052	79.2229	134.048	134.933	127.048	44.8317	120.236	80.6298	63.0913	191.885	204.356	34.929	205.617	263.861	15.027	9.383	20.042	22.044	8192	-8191	8192	8192	254	
77712.141	1	1	0	0	60.4156	53.0061	42.3249	4.74295	54.4329	30.9415	13.3962	91.6903	129.688	130.76	124.909	47.2452	122.726	87.375	59.2644	184.428	205.206	28.175	204.212	163.360	20.013	30.033	39.120	16.361	8192	-8191	8192	8192	254	
77712.188	1	1	0	0	59.7273	63.7255	53.7554	0.976151	47.2028	34.2425	9.69194	74.8095	130.216	134.611	124.428	46.5048	120.322	88.3894	58.6923	182.692	211.252	39.035	212.240	205.876	22.387	13.565	48.720	17.881	8192	-8191	8192	8192	254	
77712.266	1	1	0	0	62.9725	63.1058	45.2821	7.77891	57.2339	29.4383	14.39	75.4623	128.317	134.37	122.356	45.9952	120.832	83.601	59.3269	189.793	202.023	38.250	213.653	83.887	25.620	23.403	25.815	25.256	8192	-8191	8192	8192	254	
77712.312	1	1	0	0	61.1695	48.9773	53.3816	4.46221	43.1812	21.7487	10.9233	77.5465	133.418	129.591	122.452	41.4808	109.913	81.2163	61.0817	181.784	200.276	37.669	201.429	55.463	4.615	27.933	17.170	18.762	8192	-8191	8192	8192	254	
77712.359	1	1	0	0	59.2927	59.6726	47.595	2.30388	51.3564	25.2052	12.9543	92.2248	129.101	131.971	119.264	41.75	112.601	84.899	54.601	188.447	211.090	25.716	202.733	184.031	23.111	14.329	40.573	16.427	8192	-8191	8192	8192	254	
77712.406	1	1	0	0	66.4586	62.9675	51.7904	4.12569	49.9803	21.3126	3.70735	85.5348	132.74	139.154	120.332	44.625	111.087	81.6538	59.601	186.817	210.627	34.367	202.425	299.346	33.453	32.784	25.801	16.497	8192	-8191	8192	8192	254	
77712.453	1	1	0	0	56.4449	53.5466	44.0492	3.60895	50.319	22.8215	4.3554	83.7952	122.76	128.707	117.62	41.8894	107.077	81.9279	54.5	180.99	206.630	33.436	201.411	146.757	20.782	36.277	52.437	10.859	8192	-8191	8192	8192	254	
77712.500	1	1	0	0	64.8701	56.821	53.4984	5.84227	51.4598	20.4337	14.507	82.9241	121.875	132.288	120.697	40.5913	115.601	81.6298	63.3029	181.264	212.778	28.065	198.725	298.523	19.624	22.944	27.600	23.642	8192	-8191	8192	8192	254	
77712.555	1	1	0	0	57.1995	53.2283	55.6362	4.76879	52.1299	25.9159	3.05288	75.953	124.245	126.611	125.673	44.6827	113.26	80.5144	53.9375	176.01	208.062	34.199	197.779	165.887	13.040	32.097	348.625	21.816	8192	-8191	8192	8192	254	
77712.602	1	1	0	0	51.4369	56.0913	46.593	6.73279	50.9956	22.5575	9.67373	83.1886	126.288	134.668	120.385	43.5865	118.466	81.625	54.1298	178.591	213.497	46.003	198.808	332.338	21.163	32.840	2.282	23.615	8192	-8191	8192	8192	254	
77712.672	1	1	0	0	54.1582	57.822	56.1061	5.56993	56.5042	25.4127	17.6238	90.9415	129.587	134.091	133.793	40.8221	115.731	88.1058	54.8221	188.889	206.428	38.787	204.413	31.514	18.096	41.355	51.032	20.036	8192	-8191	8192	8192	254	
77712.719	1	1	0	0	49.7418	51.6003	49.9465	7.39268	54.1047	29.9813	9.15762	88.4305	125.832	134.192	114.558	43.1538	110.327	86.1106	55.524	190.269	205.483	34.005	200.627	340.994	24.970	25.194	34.268	20.511	8192	-8191	8192	8192	254	
77712.766	1	1	0	0	60.4796	62.0319	50.2241	8.64627	54.1898	32.6087	12.0115	77.7792	129.091	136.106	123.529	42.8269	110.062	80.5673	57.4904	182.231	198.149	39.011	208.871	264.996	24.398	20.438	24.202	22.384	8192	-8191	8192	8192	254	
77712.812	1	1	0	0	56.8768	50.0164	61.7641	1.03154	47.5214	30.084	8.25962	85.3381	126.74	128.793	118.236	41.1731	115.582	79.9423	50.4856	178.135	199.109	29.630	205.557	25.606	16.132	20.665	41.678	22.861	8192	-8191	8192	8192	254	
77712.812	1	1	0	0	52.1983	57.3938	60.1913	1.94644	52.3884	31.2062	7.8809	71.3356	125.159	133	126.13	38.9183	115.562	89.4375	54.3942	174.428	207.533	34.729	205.215	286.962	19.101	16.103	7.746	24.650	8192	-8191	8192	8192	254	
77712.859	1	1	0	0	54.0196	52.8159	56.4312	1.90153	43.467	30.3901	7.6561	75.4679	129.111	130.861	122.909	37.0625	109.611	82.9663	60.125	180.048	202.424	35.382	196.565	245.178	30.256	24.024	42.498	14.188	8192	-8191	8192	8192	254	
77712.914	1	1	7	0	53.2516	46.3378	49.5746	3.63878	49.5978	24.7915	9.50803	84.8771	124.361	130.577	117.38	42.0385	111.966	82.1394	53.2981	183.428	198.529	35.607	198.853	174.476	24.397	20.632	37.353	18.800	8192	-8191	8192	8192	254	
77712.961	1	1	0	0	59.7189	60.7369	57.3844	2.78684	48.6176	28.6185	17.0494	78.2279	129.332	126.341	121.692	44.726	110.197	85.5096	58.601	182.702	207.352	35.088	205.429	214.540	12.852	27.951	9.325	19.995	8192	-8191	8192	8192	254	
77713.031	1	1	0	0	59.0074	49.6388	50.4594	6.39983	55.4731	35.8429	8.50484	78.2881	125.649	132.13	115.788	43.8029	115.928	78.8798	50.2115	176.688	209.015	39.247	203.255	260.844	24.478	19.580	0.988	24.637	8192	-8191	8192	8192	254	
77713.078	1	1	0	0	60.2861	58.4847	43.7301	0.901612	51.8664	32.0245	10.5585	98.2299	122.909	126.947	114.942	39.8558	109.529	84.851	58.5769	186.284	215.690	28.736	209.994	266.107	15.165	17.519	342.037	18.224	8192	-8191	8192	8192	254	
77713.125	1	1	0	0	61.6203	60.0421	44.9956	4.37455	45.2456	22.7467	14.0083	81.0097	127.899	129.817	109.245	40.9519	113.5	76.0817	47.9279	176.923	203.879	31.334	212.994	133.221	8.428	39.736	34.832	20.665	8192	-8191	8192	8192	254	
77713.172	1	1	0	0	54.8903	54.2925	52.9906	5.42039	46.4488	23.689	12.2597	90.8174	121	130.534	121.688	38.6154	107.024	77.6731	51.8558	180.909	207.835	37.389	210.161	157.832	27.896	31.635	48.614	19.721	8192	-8191	8192	8192	254	
77713.227	1	1	0	0	51.5151	48.8569	50.3979	1.51559	61.8329	21.9934	4.33036	84.1034	121.712	125.423	117.212	35.9519	113.601	73.9663	52.4712	172.837	205.998	32.766	206.255	268.516	18.433	15.056	86.261	12.881	8192	-8191	8192	8192	254	
77713.273	1	1	0	0	54.8185	60.927	56.4026	4.79203	55.1777	18.9908	16.1687	80.41	124.495	131.966	118.173	38.3942	110.697	77.3846	50.0721	175.274	204.878	37.854	204.008	277.415	19.407	27.498	12.743	13.542	8192	-8191	8192	8192	254	
77713.344	1	1	0	0	62.4304	59.1613	55.6881	3.72713	51.2718	25.4902	13.5958	86.803	126.192	130.135	121.909	38.8942	117.216	76.9952	57.3125	180.202	195.699	31.434	210.268	50.059	25.214	21.062	48.366	14.224	8192	-8191	8192	8192	254	
77713.391	1	1	0	0	58.6626	55.0561	47.8598	8.2817	47.8517	33.0263	9.57827	77.7821	126.721	129.264	116.168	42.3221	111.49	87.0337	57.5385	180.904	191.704	37.421	197.806	279.773	13.475	27.865	20.057	16.950	8192	-8191	8192	8192	254	
77713.438	1	1	0	0	59.0836	48.9888	61.1793	4.44982	44.6623	19.3978	8.35176	89.084	121.543	127.904	117.062	40.5529	104.365	86.5288	56.9663	183.971	209.433	30.316	206.076	12.426	17.820	20.864	45.096	22.722	8192	-8191	8192	8192	254	
77713.484	1	1	0	0	58.7537	62.8241	49.615	3.65445	50.9705	22.4363	13.4495	78.1244	117.745	134.587	121.442	36.8798	115.062	85.8413	56.7067	180.462	203.738	29.275	204.410	165.482	13.336	34.561	31.298	16.822	8192	-8191	8192	8192	254	
77713.531	1	1	0	0	56.8521	59.5337	45.5278	2.6268	57.2266	32.3973	13.9226	69.8538	129.688	134.37	114.091	45.0577	113.654	88.2019	56.4904	176.178	206.884	28.718	200.734	2.415	21.008	28.775	12.482	20.646	8192	-8191	8192	8192	254	
77713.578	1	1	0	0	58.1337	48.6739	45.9083	3.10532	52.8207	29.9993	11.7211	86.4216	128.322	130.918	117.428	38.7933	113.63	83.899	58.2596	188.005	200.497	43.018	192.032	345.975	17.735	18.645	82.253	22.857	8192	-8191	8192	8192	254	
77713.586	1	1	0	0	52.2571	62.8189	42.2732	2.38256	52.6335	23.7826	13.0156	87.8947	130.466	136.899	119.918	39.3077	116.514	87.6827	57.8654	187.197	209.448	30.537	204.054	160.265	23.140	20.639	23.162	17.024	8192	-8191	8192	8192	254	
77713.633	1	1	0	0	57.8357	53.2022	52.2667	6.49831	39.6421	28.4113	10.4458	93.9135	126.75	138.673	126.375	42.8846	112.01	86.9327	58.7692	191.462	212.499	31.330	203.957	62.647	15.701	13.007	57.608	18.649	8192	-8191	8192	8192	254	
77713.703	1	1	0	0	54.4195	58.3302	49.6806	1.78722	48.2533	24.5014	6.23654	94.3999	123.663	133.625	118.736	45.0962	113.163	80.3942	61.625	187.62	212.681	51.950	211.335	101.086	14.287	33.767	33.027	13.249	8192	-8191	8192	8192	254	
77713.750	1	1	0	0	56.1847	47.039	44.5467	4.75716	37.9882	30.7476	12.2284	75.4421	128.75	132.625	118.221	41.5817	112.976	91.8798	54.7212	180.769	211.956	32.674	213.666	92.844	18.551	34.088	343.564	15.678	8192	-8191	8192	8192	254	
77713.797	1	1	0	0	65.1915	54.5759	50.3456	6.31287	50.9349	31.7627	8.19082	72.9943	132.159	133.764	120.688	44.4135	112.264	85.2788	60.5673	172.788	210.595	27.890	212.019	123.656	19.173	20.288	8.512	18.919	8192	-8191	8192	8192	254	
77713.844	1	1	0	0	58.3042	52.1456	44.6122	3.88224	63.3664	24.708	12.4771	86.8077	127.293	129.082	126.226	45.9038	120.596	84.8462	55.3077	186.356	210.429	34.282	203.845	188.347	18.645	23.075	9.394	20.065	8192	-8191	8192	8192	254	
77713.891	1	1	0	0	55.8057	50.0835	52.7262	7.24953	52.4424	21.3219	12.8769	83.2811	123.639	129.159	123.923	44.1442	118.389	83.6971	60.4952	191.202	210.820	35.883	197.457	338.740	21.744	30.945	37.800	18.699	8192	-8191	8192	8192	254	
77713.945	1	1	0	0	66.9012	56.5658	51.9334	4.86808	47.3895	28.4649	16.3032	70.3218	130.707	135.572	122.12	47.6587	111.572	80.5288	56.4712	184.466	202.333	39.962	212.237	349.468	19.952	32.547	18.229	24.181	8192	-8191	8192	8192	254	
77713.992	1	1	0	0	52.7321	55.2952	54.9129	4.48388	47.7243	28.0651	5.91966	88.1422	122.471	135.332	120.192	42.9663	107.899	80.3462	55.4231	182.87	202.699	40.540	199.050	9.722	27.025	15.890	14.473	18.653	8192	-8191	8192	8192	254	
77714.039	1	1	0	0	49.4773	55.6955	47.5198	2.70936	49.6199	27.3148	4.86374	75.8785	125.827	127.332	115.115	44.9615	116.909	82.1298	57.4279	182.144	211.797	41.593	195.451	266.856	23.045	15.063	325.190	19.945	8192	-8191	8192	8192	254	
77714.109	1	1	0	0	48.5969	56.4266	51.7964	3.9532	43.3468	23.813	10.8678	78.9473	126.154	134.933	126.029	44.5288	106.13	77.2356	60.2837	186.918	204.165	40.356	198.222	39.932	24.614	27.658	12.749	19.573	8192	-8191	8192	8192	254	
77714.156	1	1	0	0	49.4703	48.7954	57.799	3.61457	44.1903	31.9453	17.1899	72.5705	122.812	133.168	127.231	41.9375	114.846	85.5721	54.524	184.447	214.903	33.885	202.591	138.497	32.166	20.111	22.609	23.553	8192	-8191	8192	8192	254	
77714.203	1	1	0	0	61.4347	43.7625	51.158	1.95882	47.7413	28.1661	16.8223	82.4247	128.005	125.639	122.928	41.8702	113.611	83.4423	60.3029	188.764	200.558	26.719	202.816	50.944	22.213	33.644	47.200	13.442	8192	-8191	8192	8192	254	
77714.258	1	1	0	0	49.4988	59.6344	49.7777	2.24363	56.5046	26.925	10.1796	84.1505	122.707	131.106	115.231	44.1779	117.846	83.6346	58.2596	186.529	206.465	34.449	197.718	80.894	21.783	19.209	13.228	19.464	8192	-8191	8192	8192	254	
77714.305	1	1	0	0	56.9149	59.0485	43.0999	3.82036	49.1891	24.2705	6.04189	74.2918	128.788	130.279	117.5	41.4423	116.442	89.9904	58.7356	184.01	206.774	31.606	212.621	163.646	19.793	24.379	54.498	17.744	8192	-8191	8192	8192	254	
77714.352	1	1	0	0	63.7581	70.5993	52.8593	5.30494	44.4283	25.5852	3.69824	78.9319	121.87	141.529	120.875	43.4615	113.043	84.2548	59.3317	184.312	214.019	34.115	205.470	245.995	20.953	23.344	60.628	22.006	8192	-8191	8192	8192	254	
77714.352	1	1	0	0	57.7377	64.3648	55.5824	1.51442	46.4516	24.1087	12.7959	72.7907	128.942	134.75	121.649	43.75	112.74	81.0962	58.6298	179.207	198.964	42.720	202.818	56.892	16.908	22.738	18.224	16.476	8192	-8191	8192	8192	254	
77714.398	1	1	0	0	59.6364	52.2687	53.3697	4.46627	57.7956	21.9466	4.05494	85.7463	128.933	132.327	123.548	42.4567	116.486	84.2548	58.9135	188.909	199.874	39.295	198.921	26.732	21.831	35.859	322.461	19.348	8192	-8191	8192	8192	254	
77714.445	1	1	0	0	63.8775	54.038	57.4799	4.02941	52.7534	24.5193	7.59844	87.3989	136.365	133.62	128.707	48.5913	116.043	87.4087	55.0817	189.529	206.332	37.560	197.048	107.058	24.486	27.804	358.157	27.151	8192	-8191	8192	8192	254	
77714.492	1	1	0	0	55.2072	60.4092	40.9868	6.24331	47.6478	32.2788	9.30749	89.1206	129.827	136.606	118.005	42.9856	123.76	88.5192	57.5769	190.865	218.037	27.492	204.817	50.158	15.122	17.744	64.091	16.429	8192	-8191	8192	8192	254	
77714.570	1	1	0	0	53.6276	47.896	56.0682	5.41587	48.2506	31.4205	7.29564	79.5164	124.274	130.207	123.433	43.0625	111.812	87.4519	59.875	185.837	208.946	31.297	203.125	119.350	26.899	12.947	50.319	25.677	8192	-8191	8192	8192	254	
77714.617	1	1	0	0	55.9073	59.4319	56.3604	4.35888	47.9247	27.7541	5.90441	75.7357	126.548	138.125	122.572	43.8365	116.135	84.8846	63.1779	185.37	201.947	44.709	208.342	210.987	17.057	32.817	2.234	19.365	8192	-8191	8192	8192	254	
77714.664	1	1	0	0	47.1981	54.8409	47.6165	4.24852	57.0239	26.2024	9.96001	76.5637	124.404	134.361	122.543	43.4712	116.837	88.3798	60.7692	186.024	197.355	32.859	193.128	125.340	19.094	6.778	359.135	23.762	8192	-8191	8192	8192	254	
77714.711	1	1	0	0	61.5859	51.5941	53.9135	7.36443	49.1781	31.6397	8.30706	79.8229	126.976	131.942	127.87	45.2212	121.303	89.5096	60.3029	187.567	196.498	38.659	214.785	67.287	16.903	30.076	24.831	17.549	8192	-8191	8192	8192	254	
77714.758	1	1	0	0	49.7599	61.0867	55.7641	4.73309	51.7969	27.7803	6.7816	77.3033	126.048	136.76	124.543	44.726	116.649	82.4567	60.0144	185.399	204.140	36.784	197.811	349.955	18.782	24.982	33.708	33.829	8192	-8191	8192	8192	254	
77714.805	1	1	0	0	57.877	50.7317	55.9455	3.65469	51.2217	33.21	9.82923	89.8604	125.236	123.312	120.673	39.6827	114.957	79.9519	57.3894	191.808	202.275	37.568	203.127	117.644	18.437	27.769	14.183	20.784	8192	-8191	8192	8192	254	
77714.875	1	1	0	0	51.9629	54.9501	47.9497	3.90937	51.8417	17.6287	12.0049	75.9456	127.418	130.514	123.091	38.4519	116.25	84.8317	61.4135	186.087	200.932	33.634	196.529	101.440	20.266	29.480	18.869	13.066	8192	-8191	8192	8192	254	
77714.930	1	1	0	0	55.9888	51.8805	52.9152	3.5726	54.0778	24.2262	7.81599	76.6571	129.226	128.692	122.399	45.7788	117.659	84.1346	61.1538	176.115	209.621	47.059	204.086	159.548	29.189	50.148	54.334	15.240	8192	-8191	8192	8192	254	
77714.977	1	1	0	0	50.9721	50.5594	54.8196	1.95832	51.8063	25.7586	16.0842	91.6018	129.846	132.784	122.394	44.351	111.202	85.5144	58.5288	184.226	207.628	34.658	201.846	33.768	19.016	0.660	28.603	20.390	8192	-8191	8192	8192	254	
77715.023	1	1	0	0	61.2127	60.2186	51.2896	1.37438	63.2973	13.7396	16.3308	85.8135	125.784	140.856	112.163	43.0433	117.019	85.0865	62.9904	187.635	204.351	33.835	203.955	146.089	19.652	15.993	16.453	11.236	8192	-8191	8192	8192	254	
77715.070	1	1	0	0	55.7079	61.4635	57.8746	0.591303	60.2841	28.9709	7.14238	92.4854	128.466	134.245	119.841	41.4856	117.995	90.2019	60.5192	190.817	203.989	41.376	204.333	27.203	16.215	33.067	26.343	18.110	8192	-8191	8192	8192	254	
77715.117	1	1	0	0	54.9026	50.6378	53.2559	5.72767	48.3326	29.1907	7.99789	83.1382	128.043	122.644	119.413	47.7163	112.755	82.6202	56.9808	183.865	202.695	40.267	213.905	196.701	22.657	23.752	23.310	20.191	8192	-8191	8192	8192	254	
77715.117	1	1	0	0	57.8722	47.6855	47.3738	1.46152	52.1903	29.9198	11.0824	85.7009	126.442	132.231	123.707	41.7067	116.558	83.0817	54.9279	186.697	212.114	39.712	200.396	76.207	20.065	22.463	23.750	22.123	8192	-8191	8192	8192	254	
77715.164	1	1	0	0	57.8883	55.035	51.4218	4.54139	50.7692	23.1369	8.70467	69.305	128.255	127.332	121.712	39.3365	110.12	85.8365	58.0625	185.005	205.214	29.826	212.925	60.995	17.993	30.590	27.842	17.588	8192	-8191	8192	8192	254	
77715.219	1	1	0	0	59.7521	65.1057	42.2906	1.34308	51.0395	29.8761	8.81043	83.3316	127.034	136.505	120.582	43.8606	113.88	83.7644	53.7163	187.625	204.660	35.889	205.759	68.491	17.801	16.766	47.239	18.541	8192	-8191	8192	8192	254	
77715.266	1	1	0	0	63.3135	52.6976	61.2864	7.7745	43.1785	28.643	12.0053	83.1466	123.606	131.029	128.784	46.1923	114.721	79.3798	60.9952	185.875	201.877	32.138	208.186	34.305	17.214	18.873	18.651	16.854	8192	-8191	8192	8192	254	
77715.336	1	1	0	0	57.9973	55.6123	53.4575	3.42193	51.4353	24.6107	8.34666	90.3075	120.481	133.716	126.188	43.2692	114.75	84.1202	60.6394	189.38	210.802	25.867	203.568	149.294	14.605	35.912	60.764	16.574	8192	-8191	8192	8192	254	
77715.383	1	1	0	0	59.8406	65.2748	54.3939	2.25156	47.9294	22.0574	5.36371	73.0921	134.409	139.034	123.731	43.7933	112.25	82.7019	56.4615	181.471	203.046	45.182	208.528	225.358	22.463	3.964	38.349	30.243	8192	-8191	8192	8192	254	
77715.430	1	1	0	0	52.9122	55.4301	56.5068	1.07298	50.1275	22.3286	6.77971	86.3176	126.899	132.716	123.207	43.9183	117.019	85.2981	61.2163	191.236	205.748	31.573	207.400	304.125	21.495	36.086	36.381	25.325	8192	-8191	8192	8192	254	
77715.477	1	1	0	0	62.2309	59.2792	51.3047	4.41466	46.8373	22.4597	6.90038	89.5571	132.337	133.163	125.577	45.2308	114.519	86.6731	57.601	195.048	197.233	37.378	204.493	123.445	21.501	6.045	19.129	22.509	8192	-8191	8192	8192	254	
77715.523	1	1	0	0	53.9723	64.2392	53.3417	3.64255	54.5546	28.6707	8.90807	88.3839	132.038	141.014	118.192	46.75	126.37	84.0529	57.5337	181.082	209.375	34.496	208.749	148.761	30.071	42.936	63.077	18.448	8192	-8191	8192	8192	254	
77715.570	1	1	0	0	57.6336	58.3403	47.3729	1.84535	54.4205	30.7104	11.299	81.8259	131.01	131.918	122.168	50.3558	115.798	83.4712	55.75	188.26	212.642	39.487	198.479	110.388	24.896	35.830	45.862	19.589	8192	-8191	8192	8192	254	
77715.625	1	1	0	0	65.9757	56.5338	59.5624	3.29011	51.8345	26.971	15.7699	87.1938	128.111	141.668	122.769	44.4183	115.159	85.9423	57.9663	186.202	208.219	28.904	211.582	328.869	27.197	25.824	45.975	18.253	8192	-8191	8192	8192	254	
77715.672	1	1	0	0	52.2561	46.6227	61.9893	0.0911308	42.0759	32.9455	12.0888	78.9784	127.865	127.12	132.495	45.5769	112.966	85.0529	63.5769	187.298	210.616	41.517	215.273	191.806	20.537	13.296	57.718	15.725	8192	-8191	8192	8192	254	
77715.742	1	1	0	0	58.2998	59.9509	52.5535	2.33231	46.8755	24.3262	4.93581	83.7867	133.139	137.947	125.971	47.3221	122.476	83.4327	61.4856	190.053	204.467	35.876	209.020	172.109	24.459	22.282	5.088	15.737	8192	-8191	8192	8192	254	
77715.789	1	1	0	0	62.9956	45.4873	48.0131	2.75902	50.455	18.5	2.22412	79.7092	126.798	130.62	125.101	42.2596	112.067	77.5385	60.3606	187.183	207.754	23.272	201.827	60.842	19.221	28.667	66.536	14.961	8192	-8191	8192	8192	254	
77715.836	1	1	0	0	54.6257	59.1425	43.9242	6.13425	47.5998	31.5036	8.9853	81.41	127.577	135.351	120.736	48.8365	108.212	87.4231	56.3317	191.587	202.542	41.360	204.521	215.746	27.957	23.930	4.730	18.438	8192	-8191	8192	8192	254	
77715.891	1	1	0	0	48.7914	47.1665	55.2506	2.5603	49.7654	22.232	13.1796	73.6889	123.596	130.178	126.567	42.5	110.255	85.7404	59.3942	179.269	194.125	32.217	210.130	321.896	23.321	24.668	330.616	17.334	8192	-8191	8192	8192	254	
77715.883	1	1	0	0	59.9779	51.5487	46.6159	2.84335	54.1163	21.1548	7.79611	86.7622	129.236	128.26	122.476	43.9038	118.702	84.7308	56.7163	190.827	209.440	44.761	205.652	216.804	18.215	32.671	45.859	24.112	8192	-8191	8192	8192	254	
77715.938	1	1	0	0	53.4632	59.187	47.7686	3.12951	51.6565	27.7838	12.0334	81.3666	127.413	135.495	118.135	45.8077	116.851	88.7981	60.2019	191.284	200.501	32.294	211.435	123.903	22.552	1.823	30.243	29.232	8192	-8191	8192	8192	254	
77716.008	1	1	0	0	49.6785	63.3009	53.2567	2.42081	53.469	20.1381	7.22869	96.2439	129.188	142.793	122.606	44.3606	119.538	90.7308	59.0337	196.144	200.815	38.368	202.298	93.676	17.642	20.942	332.788	26.449	8192	-8191	8192	8192	254	
77716.055	1	1	0	0	58.4068	52.7607	52.1108	3.13703	50.5905	25.6518	7.04283	86.4151	126.067	135.577	127.346	43.149	117.125	83.6779	64.9327	185.659	207.238	41.548	210.522	215.816	20.181	15.371	67.767	25.685	8192	-8191	8192	8192	254	
77716.102	1	1	0	0	58.1915	51.9677	52.5704	5.06004	49.3711	23.9151	7.12094	85.7423	127.538	138.466	115.808	43.4519	119.803	85.5192	57.625	184.673	205.209	37.771	197.085	209.484	21.329	41.792	45.026	22.286	8192	-8191	8192	8192	254	
77716.148	1	1	0	0	53.2447	55.7102	55.7759	1.62598	55.7654	18.462	11.4133	83.9625	135.731	129.476	127.144	44.0577	118.75	85.0673	59.7404	185.438	209.453	32.530	200.370	197.157	13.502	17.473	45.726	17.480	8192	-8191	8192	8192	254	
77716.195	1	1	0	0	75.6836	61.3676	44.8078	5.86358	59.2107	19.0136	11.4892	77.1231	133.798	131.668	126.096	45.1779	120.567	88.4663	65.1875	180.178	200.212	34.982	197.997	326.456	25.891	22.855	34.035	15.175	8192	-8191	8192	8192	254	
77716.250	1	1	0	0	51.3579	56.1556	47.5434	1.40072	42.2129	35.5332	16.8186	84.8718	123.721	133.692	119.899	45.6058	115.812	85.9327	59.3702	184.269	218.229	38.942	214.231	14.252	20.898	34.286	9.035	17.815	8192	-8191	8192	8192	254	
77716.297	1	1	0	0	49.6839	63.9026	59.2396	1.6238	50.6896	17.294	2.93179	81.3445	129.096	141.442	125.736	44.2404	122.976	87.1587	54.9375	178.995	210.898	36.023	209.224	342.340	20.646	8.640	108.459	25.070	8192	-8191	8192	8192	254	
77716.344	1	1	0	0	57.5544	51.4471	51.4077	2.72793	54.2297	20.3823	9.58555	74.181	129.438	130.812	122.389	44.5144	117.861	76.6923	59.2548	178.288	208.688	40.799	203.911	197.241	16.627	27.751	357.053	18.820	8192	-8191	8192	8192	254	
77716.414	1	1	8	0	62.5629	63.6623	59.841	5.22502	54.5354	37.0997	9.01504	86.0013	127.37	138.875	125.692	45.5769	117.5	87.3846	60.9952	187.87	204.016	38.766	203.203	279.014	19.383	16.681	30.262	21.572	8192	-8191	8192	8192	254	
77716.461	1	1	0	0	60.964	48.6684	49.6783	2.90054	50.4412	28.1755	7.15501	78.7811	125.861	128.034	119.274	49.6202	113.769	83.1346	60.2163	185.88	199.721	36.938	202.627	174.858	20.538	23.831	39.163	16.269	8192	-8191	8192	8192	254	
77716.508	1	1	0	0	49.2552	52.2359	41.7829	1.9904	50.1969	35.0997	10.0941	84.3276	124.01	130.37	122.764	42.2067	113.837	79.1875	60.8702	201.452	200.274	33.219	204.243	151.368	15.324	23.783	19.807	15.767	8192	-8191	8192	8192	254	
77716.562	1	1	0	0	66.4121	58.8811	47.4949	4.95821	55.435	34.0552	14.2648	70.253	127.409	130.024	118.587	44.101	118.418	91.5192	59.1106	180.524	213.113	40.442	201.222	130.060	18.419	26.708	43.413	17.711	8192	-8191	8192	8192	254	
77716.609	1	1	0	0	57.5257	51.812	49.5086	3.66255	51.1482	26.6263	6.69741	96.9493	125.659	125.37	128.231	41.4327	115.606	84.3173	56.4567	192.731	205.642	38.375	195.783	53.558	16.951	9.184	328.603	24.788	8192	-8191	8192	8192	254	
77716.656	1	1	0	0	63.2479	55.9065	49.4651	4.24459	51.5241	26.5166	10.5541	75.1581	129.409	132.202	126.692	45.0721	115.394	85.4519	58.9087	186.562	206.457	31.713	209.398	20.267	21.633	19.070	63.214	20.984	8192	-8191	8192	8192	254	
77716.656	1	1	0	0	58.3414	52.2657	55.1652	3.17848	55.7142	22.1748	5.35569	70.9115	130.62	126.712	124.139	42.5817	118.423	84.5096	58.9471	180.361	204.428	29.000	218.685	293.480	11.237	34.757	302.961	21.724	8192	-8191	8192	8192	254	
77716.703	1	1	0	0	55.166	50.1072	52.3142	2.35882	50.4579	25.0513	12.3826	86.2089	125.745	128	121.663	48.2356	112.101	84.5192	63.3462	189.12	210.805	27.886	201.417	244.477	18.733	34.982	38.968	13.064	8192	-8191	8192	8192	254	
77716.750	1	1	0	0	46.5366	60.4208	49.2652	3.25479	51.433	27.2352	3.02229	85.3657	121.476	136.827	127.274	45.7404	111.212	86.5769	59.6298	190.471	205.447	40.218	208.099	98.614	16.224	13.392	89.477	13.890	8192	-8191	8192	8192	254	
77716.797	1	1	0	0	59.3955	50.0409	50.2418	4.53007	40.5938	28.2751	4.05123	76.4168	132.029	134.413	122.029	40.375	115.486	83.0144	59.274	174.707	204.868	46.295	201.555	127.374	23.009	25.753	21.463	16.545	8192	-8191	8192	8192	254	
77716.867	1	1	0	0	53.8139	56.9828	56.1706	4.42009	47.768	26.244	10.8954	74.9372	128.418	128.678	127.466	42.1346	109.524	83.0529	59.8894	185.543	206.594	42.663	215.594	351.426	20.200	34.914	40.199	23.367	8192	-8191	8192	8192	254	
77716.922	1	1	0	0	49.7204	62.4095	54.1402	0.96839	50.1073	38.0488	7.54257	73.7263	131.601	132.356	125.827	42.0481	111.913	92.3269	53.976	188.25	211.240	34.436	195.312	23.468	28.459	9.920	67.375	20.438	8192	-8191	8192	8192	254	
77716.969	1	1	0	0	47.1957	52.0538	52.816	4.54528	54.1871	26.7247	11.8761	74.3464	125.236	127.447	129.207	48.0817	113.784	89.1971	57.9856	177.51	198.618	33.005	199.679	315.349	18.932	42.434	21.094	13.870	8192	-8191	8192	8192	254	
77717.016	1	1	0	0	62.0469	55.515	57.4697	4.27601	51.4086	21.4304	3.70735	71.4416	125.865	131.5	125.24	41.875	113.942	80.7019	62.6442	177.721	214.715	31.578	209.506	328.987	18.082	34.922	56.678	25.500	8192	-8191	8192	8192	254	
77717.062	1	1	0	0	65.3291	44.5475	54.4445	4.31263	45.9718	23.2166	8.56999	90.2707	133.76	125.519	124.745	44.2163	111.25	83.4471	60.7981	191.861	199.949	29.747	202.329	211.233	24.375	12.786	59.310	9.578	8192	-8191	8192	8192	254	
77717.109	1	1	0	0	54.0065	51.4323	53.2818	3.9471	48.6523	28.8075	9.68853	88.3562	125.409	130.428	118.524	46.5529	113.404	87.2019	60.4856	183.697	203.745	37.736	216.663	202.309	14.467	8.593	81.114	20.856	8192	-8191	8192	8192	254	
#DATA ENDS
