BOXY.EXE: ISS Imagent Data Acquisition Program Version 0.82
Ascii Record File

#ACQ INFORMATION
1  Detector Channels 
8  External MUX Channels 
4  Auxiliary Analog Channels 
5000  Waveform (CCF) Frequency (Hz)
4  Waveforms Skipped 
26  Waveforms Averaged 
1  Cycles Averaged 
8  Acquisitions per Waveform 
1  Auxiliary Digital Channels 

#Data Update Rate
20.8333  Update Rate (Hz) 
FALSE -- Use Phase Reference
FALSE -- Use Continuous Phase Reference
FALSE -- Use Intensity Reference
FALSE -- Use Continuous Intensity Reference

#FILE INFORMATION
TRUE -- External MUX Channel results are PARSED.
FALSE -- AC DC and Phase are NOT grouped.
TRUE -- Companion Program Settings File CREATED.
FALSE -- AC data not excluded
FALSE -- DC data not excluded
FALSE -- Phase data not excluded
FALSE -- Auxillary Chn. data not excluded
Tab delimiters

#CALIBRATION STATE
FALSE -- Waveform Calibration Values NOT applied.

#WAVELENGTH DATA
Wavelength Index	Wavelength	Comp1 ExtCoef	Comp2 ExtCoef	Comp3 ExtCoef	Comp4 ExtCoef	BackGround	Weight	

1	6.600e+02	1.486e+00	3.844e+00	1.000e+00	1.000e+00	1.890e-02	1.000e+00	
2	6.900e+02	2.315e+00	1.792e+00	1.000e+00	1.000e+00	2.180e-02	1.000e+00	
3	7.500e+02	1.000e+00	1.000e+00	1.000e+00	1.000e+00	3.010e-03	1.000e+00	
4	7.750e+02	1.000e+00	1.000e+00	1.000e+00	1.000e+00	3.240e-03	1.000e+00	
5	7.850e+02	1.000e+00	1.000e+00	1.000e+00	1.000e+00	1.660e-02	1.000e+00	
6	8.000e+02	1.000e+00	1.000e+00	1.000e+00	1.000e+00	1.480e-02	1.000e+00	
7	8.250e+02	1.000e+00	1.000e+00	1.000e+00	1.000e+00	1.620e-02	1.000e+00	
8	8.300e+02	1.000e+00	1.000e+00	1.000e+00	1.000e+00	2.620e-02	1.000e+00	


#AUX CALIBRATION VALUES
Val Type	aux-1	aux-2	aux-3	aux-4	

Term	0.0000e+00	0.0000e+00	0.0000e+00	0.0000e+00	
Factor	1.0000e+00	1.0000e+00	1.0000e+00	1.0000e+00	


#WF CALIBRATION VALUES
A = Detector Channel
Val Type	A-AC1	A-AC2	A-AC3	A-AC4	A-AC5	A-AC6	A-AC7	A-AC8	A-DC1	A-DC2	A-DC3	A-DC4	A-DC5	A-DC6	A-DC7	A-DC8	A-Ph1	A-Ph2	A-Ph3	A-Ph4	A-Ph5	A-Ph6	A-Ph7	A-Ph8	

Term	0.00000e+00	0.00000e+00	0.00000e+00	0.00000e+00	0.00000e+00	0.00000e+00	0.00000e+00	0.00000e+00	0.00000e+00	0.00000e+00	0.00000e+00	0.00000e+00	0.00000e+00	0.00000e+00	0.00000e+00	0.00000e+00	-1.05892e+02	-9.99249e+01	-2.86485e+02	-2.62799e+02	-2.45797e+02	-2.48632e+02	-7.72400e+01	-7.86612e+01	
Factor	3.48934e-02	2.88771e-02	2.23541e-02	4.58344e-02	3.11822e-02	3.92311e-02	3.80806e-02	2.80088e-02	4.70955e+01	8.07534e+01	3.66973e+01	1.04434e+02	6.45565e+01	3.94082e+01	9.13796e+01	5.49806e+01	X	X	X	X	X	X	X	X	



#DISTANCE SETTINGS
A = Detector Channel
A-1	A-2	A-3	A-4	A-5	A-6	A-7	A-8	

1.5000e+00	1.5000e+00	1.5000e+00	1.5000e+00	1.5000e+00	1.5000e+00	1.5000e+00	1.5000e+00	



#ADDITIONAL SIGNAL INFORMATION
A = Detector Channel
Info. Type	A-1	A-2	A-3	A-4	A-5	A-6	A-7	A-8	

cal. block. ind.	1	1	1	1	1	1	1	1	
wavelength ind.	0	1	2	3	4	5	6	7	
weight	1.0000e+00	1.0000e+00	1.0000e+00	1.0000e+00	1.0000e+00	1.0000e+00	1.0000e+00	1.0000e+00	


#CALIBRATION BLOCK OPTICAL PROPS
Calib. Block Num.	WaveLen Index	Absorption	Scattering	

1	1	1.080e-01	9.000e+00	
1	2	1.300e-01	1.070e+01	
1	3	1.130e-01	9.400e+00	
1	4	1.210e-01	1.000e+01	
1	5	1.080e-01	9.000e+00	
1	6	1.300e-01	1.070e+01	
1	7	1.150e-01	9.600e+00	
1	8	1.330e-01	1.090e+01	

Calib. Block Num.	WaveLen Index	Absorption	Scattering	

2	1	1.120e-01	4.400e+00	
2	2	1.200e-01	5.700e+00	
2	3	1.140e-01	4.600e+00	
2	4	1.160e-01	5.100e+00	
2	5	1.120e-01	4.400e+00	
2	6	1.200e-01	5.700e+00	
2	7	1.150e-01	4.800e+00	
2	8	1.210e-01	6.000e+00	

Calib. Block Num.	WaveLen Index	Absorption	Scattering	

3	1	9.300e-02	8.700e+00	
3	2	1.010e-01	1.040e+01	
3	3	9.500e-02	9.000e+00	
3	4	9.700e-02	9.600e+00	
3	5	9.300e-02	8.700e+00	
3	6	1.010e-01	1.040e+01	
3	7	9.600e-02	9.300e+00	
3	8	1.030e-01	1.080e+01	

Calib. Block Num.	WaveLen Index	Absorption	Scattering	

4	1	1.000e-01	1.000e+01	
4	2	1.000e-01	1.000e+01	
4	3	1.000e-01	1.000e+01	
4	4	1.000e-01	1.000e+01	
4	5	1.000e-01	1.000e+01	
4	6	1.000e-01	1.000e+01	
4	7	1.000e-01	1.000e+01	
4	8	1.000e-01	1.000e+01	



#DATA BEGINS
time	group	step	mark	flag	A-AC1	A-AC2	A-AC3	A-AC4	A-AC5	A-AC6	A-AC7	A-AC8	A-DC1	A-DC2	A-DC3	A-DC4	A-DC5	A-DC6	A-DC7	A-DC8	A-Ph1	A-Ph2	A-Ph3	A-Ph4	A-Ph5	A-Ph6	A-Ph7	A-Ph8	aux-1	aux-2	aux-3	aux-4	digaux	

76311.898	1	1	0	768	3767.11	5.86267	3638.85	1645.7	520.369	5028.69	2.93964	5.21508	5657.39	57.5577	5179.62	2612.58	904.635	8695.01	48.0721	44.3317	30.874	209.946	206.433	209.840	212.149	206.620	55.895	198.019	8192	-8191	8192	8192	254	
76311.945	1	1	0	0	4715.59	4931.7	4221.98	5.55943	3555.68	1705.71	517.373	5088.37	6870.5	7992.1	6476.12	53.2115	5160.94	2628.86	925.231	8706.34	31.698	220.040	29.490	183.236	206.933	211.489	211.199	206.858	8192	-8191	8192	8192	254	
76312.016	1	1	0	0	4612.82	5052.52	4261.44	6.14167	3618.09	1702.78	531.019	4983.76	6818	8020.88	6503.82	53.3654	5189.18	2639.64	918.971	8629.31	31.150	219.389	29.762	257.339	206.264	209.637	215.013	207.513	8192	-8191	8192	8192	254	
76312.062	1	1	0	0	4650.05	5006.22	4335.87	5.18327	3598.37	1684.79	513.834	5005.91	6847.38	8023.11	6603.24	54.0096	5167.41	2622.94	915.226	8673.72	31.316	219.503	29.261	233.965	205.722	209.791	211.903	206.498	8192	-8191	8192	8192	254	
76312.109	1	1	0	0	4633.28	4971.64	4378.26	13.8266	3620.88	1634.19	515.115	4989.25	6816.64	7993.59	6612.79	50.9087	5197	2612.4	903.481	8698.42	30.446	218.881	29.647	222.261	206.595	211.991	214.057	206.630	8192	-8191	8192	8192	254	
76312.156	1	1	0	0	4606.85	4983.26	4419.42	2.14224	3579.29	1648.14	510.418	5017.61	6774.27	8033.66	6659.44	52.0096	5159.25	2597.83	911.399	8682.21	30.617	218.594	28.852	295.729	206.176	210.767	212.570	206.400	8192	-8191	8192	8192	254	
76312.211	1	1	0	0	4689.44	4983.03	4311.42	5.37219	3596.96	1602.92	526.242	5010.66	6855.54	8023.55	6599.87	59.7019	5171.11	2562.3	924.481	8667.08	30.333	218.650	29.425	241.183	205.941	209.001	212.905	206.248	8192	-8191	8192	8192	254	
76312.258	1	1	0	0	4596.3	4965.2	4341.86	9.79106	3590.43	1691.64	507.579	5094.16	6784.74	8004.38	6627.1	53.4567	5175.67	2622.69	895.413	8719.25	30.339	218.960	29.611	230.772	206.370	209.524	214.995	206.418	8192	-8191	8192	8192	254	
76312.305	1	1	0	0	4612.91	5003.19	4425.17	10.5327	3567.61	1646.71	530.07	4989.86	6868.07	8022.82	6685.44	55.1106	5158.88	2602.34	910.784	8694.86	31.143	219.333	29.677	243.929	206.740	209.830	214.452	206.230	8192	-8191	8192	8192	254	
76312.352	1	1	0	0	4638.83	5029.27	4384.41	10.5903	3584.86	1704.17	513.127	5041.2	6812.03	8028.12	6643.26	52.774	5170.26	2654	906.904	8704.7	31.170	219.445	29.207	236.133	205.247	209.003	212.138	206.947	8192	-8191	8192	8192	254	
76312.398	1	1	0	0	4647.79	4995.5	4424.59	11.3159	3542.63	1657.06	532.98	5107.42	6832.37	8019.02	6690.14	58.0048	5144.86	2601.5	901.534	8749	31.011	218.833	29.815	188.876	206.743	210.047	213.253	206.402	8192	-8191	8192	8192	254	
76312.445	1	1	0	0	4611.69	5012.97	4434.06	7.90724	3628.3	1646.96	513.513	5061.79	6826.19	8013.97	6707.38	54.9038	5173.21	2611.65	910.361	8720.07	31.895	219.269	29.431	228.172	206.691	210.398	212.485	206.709	8192	-8191	8192	8192	254	
76312.516	1	1	0	0	4644.19	4920.69	4449.15	12.0225	3552.22	1644.97	537.247	4967.83	6802.55	7965.71	6685.35	57.1683	5187.95	2603.31	916.308	8653.09	30.643	218.862	29.667	243.481	206.513	209.925	212.603	206.419	8192	-8191	8192	8192	254	
76312.570	1	1	0	0	4595.1	4934.19	4360.9	8.03332	3559.54	1663.31	524.537	5007.64	6826.16	7939.09	6642.7	56.4423	5160.1	2602.89	932.798	8728.05	30.608	219.190	28.793	233.676	207.046	210.894	213.852	206.375	8192	-8191	8192	8192	254	
76312.617	1	1	0	0	4643.8	4953.56	4400.59	5.17921	3563.51	1693	505.65	5008.73	6849.57	7960.2	6668.82	48.9856	5185.07	2624.21	899.082	8711.84	31.537	219.883	29.335	300.549	206.045	208.908	215.145	206.997	8192	-8191	8192	8192	254	
76312.664	1	1	0	0	4634.46	5018.91	4443.69	6.38469	3571.28	1686.16	513.026	5034.97	6812.02	8010.32	6711.78	51.5433	5162.38	2625.66	915.942	8718.14	31.350	219.425	28.956	198.944	206.271	209.666	213.909	206.161	8192	-8191	8192	8192	254	
76312.664	1	1	0	0	4670.35	4997.28	4469.5	10.3765	3574.48	1694.66	501.576	5022.86	6853.16	7995.68	6735.95	49.0673	5169.36	2646.3	891.486	8712.22	30.694	218.757	30.051	189.491	206.881	208.774	216.190	205.443	8192	-8191	8192	8192	254	
76312.711	1	1	0	0	4623.29	4956.67	4394.42	5.26059	3551.6	1636.96	531.145	5014.99	6814	7989.42	6688.04	46.5337	5141.58	2604.97	902.659	8691.06	31.010	218.975	29.448	199.419	205.950	210.002	213.592	206.464	8192	-8191	8192	8192	254	
76312.758	1	1	0	0	4684.56	4974.5	4374.48	11.2899	3582.78	1642.36	510.182	5059.78	6824.33	8037	6665.87	55.75	5169.47	2604.81	909.803	8709.91	30.989	218.588	29.061	169.206	206.087	210.471	210.847	207.027	8192	-8191	8192	8192	254	
76312.805	1	1	0	0	4685.44	4985.1	4421.88	6.36266	3596.74	1660.11	505.449	5022.27	6864.7	8013.46	6718.02	57.351	5163.66	2626.21	904.668	8626.23	30.927	219.889	29.330	253.530	206.475	210.097	211.032	206.997	8192	-8191	8192	8192	254	
76312.875	1	1	0	0	4619.88	4990.91	4510.88	8.10435	3538.2	1699.29	498.156	5023.95	6783.46	8041.98	6761.19	55.5481	5161.95	2628.05	896.058	8693.08	30.702	219.066	28.815	284.266	206.737	209.755	212.640	205.192	8192	-8191	8192	8192	254	
76312.930	1	1	0	0	4626.51	4971.06	4467.38	8.098	3599.8	1668.42	496.349	5047.08	6839.27	8031.61	6743.45	50.7212	5192.57	2625.77	895.341	8676.15	30.659	218.500	29.905	207.057	207.024	209.475	212.475	206.679	8192	-8191	8192	8192	254	
76312.977	1	1	1	0	4706.56	4984.5	4399.44	13.5114	3645.29	1675.85	514.243	5076.83	6853.93	8005.68	6721.37	53.1875	5193.75	2617.35	911.274	8718.17	31.170	219.449	29.299	206.776	205.974	210.134	208.995	207.077	8192	-8191	8192	8192	254	
76313.023	1	1	0	0	4641.53	5023.76	4393.27	7.59687	3540.16	1687.46	483.116	5008.44	6810.39	8081.05	6678.66	53.4808	5128.95	2654.49	889.221	8692.66	30.793	218.713	29.640	260.407	206.328	210.450	212.042	206.218	8192	-8191	8192	8192	254	
76313.070	1	1	0	0	4679.6	5019.59	4381.29	5.21933	3608.02	1677.83	510.704	5061.22	6821.97	8021.88	6681.48	50.9087	5170.94	2601.71	909.428	8710.74	30.976	219.445	28.314	248.790	206.725	210.389	213.080	206.830	8192	-8191	8192	8192	254	
76313.117	1	1	0	0	4624.28	4973	4509.14	4.99737	3601.86	1641.2	526.6	4956.39	6795.98	8007.44	6741.33	52.6779	5180.08	2600.87	920.587	8655.45	31.023	218.906	29.330	197.129	204.975	209.339	211.835	206.306	8192	-8191	8192	8192	254	
76313.195	1	1	0	0	4577.73	4934.69	4443.46	2.92816	3557.01	1668.32	519.584	5039.27	6792.22	7989.57	6730.65	52.3173	5176.14	2619.06	909.053	8683.77	30.840	219.612	30.590	265.465	206.608	209.299	213.197	205.606	8192	-8191	8192	8192	254	
76313.242	1	1	0	0	4713.78	4879.34	4449	0.50837	3592.77	1655.14	503.147	5112.43	6878.01	7957.89	6715.81	47.1731	5189.05	2611.39	903.418	8735.11	31.141	219.120	29.338	2.828	206.184	210.536	212.348	205.985	8192	-8191	8192	8192	254	
76313.289	1	1	0	0	4636.2	4913.1	4421.12	8.88572	3532.01	1645.84	509.305	4995.24	6821.69	7980.15	6708.77	53.024	5167.81	2596.81	909.24	8659.44	30.829	219.123	28.574	206.290	207.083	208.825	211.416	206.735	8192	-8191	8192	8192	254	
76313.336	1	1	0	0	4764.17	4933.31	4423.69	2.72321	3571.62	1630.32	540.995	5032.42	6880.27	7995.38	6705.46	56.7452	5159.07	2600.95	924.707	8689.95	30.762	219.958	29.269	280.035	207.010	209.282	209.207	206.718	8192	-8191	8192	8192	254	
76313.383	1	1	0	0	4636.55	4926.32	4421.68	3.04223	3484.01	1698.06	532.573	4917.23	6841.54	7962.36	6704.89	53.3221	5121.48	2655.09	913.341	8642.72	30.366	219.339	30.347	240.462	205.919	210.327	214.156	207.292	8192	-8191	8192	8192	254	
76313.430	1	1	0	0	4664.87	5042.4	4405.62	8.54782	3529.93	1675.77	513.872	5053.69	6815.63	8032.59	6708.43	49.3029	5161.06	2628.79	915.216	8707.84	30.978	219.329	29.441	191.213	206.479	210.147	210.730	206.248	8192	-8191	8192	8192	254	
76313.430	1	1	0	0	4691.25	4954.76	4410.56	9.71862	3612.48	1611.7	511.689	5053.76	6869.68	8011.05	6708.83	53	5208.8	2617.96	900.207	8698.07	30.314	219.015	29.072	238.369	206.060	209.328	213.452	206.882	8192	-8191	8192	8192	254	
76313.477	1	1	0	0	4642.83	4933.63	4403.62	6.94421	3537.67	1679.91	515.846	4955.64	6840.72	8014.45	6713.14	51.3173	5137.73	2606.8	906.428	8652	31.000	218.517	28.922	242.815	205.694	209.341	212.886	206.092	8192	-8191	8192	8192	254	
76313.523	1	1	0	0	4617.38	4940.27	4468.7	7.03391	3595.27	1657.85	517.919	5052.06	6822.23	7991.93	6707	52.1827	5162.03	2615.67	903.144	8703.92	31.060	218.664	29.769	224.476	206.051	210.157	213.437	206.192	8192	-8191	8192	8192	254	
76313.578	1	1	0	0	4591.86	4945.12	4402.3	7.67122	3564.34	1677.55	513.858	5013.3	6780.18	8006.3	6717.65	52.2452	5164.54	2609.23	902.279	8691.92	30.733	219.847	29.060	236.564	206.135	210.174	210.890	206.906	8192	-8191	8192	8192	254	
76313.648	1	1	0	0	4646.21	4936.39	4329.82	8.16272	3583.98	1648.03	548.644	4998.75	6832.17	7951.46	6660.24	49.4904	5165.81	2613.41	917.183	8672.88	30.619	218.963	29.660	173.138	205.971	209.694	213.106	206.285	8192	-8191	8192	8192	254	
76313.695	1	1	0	0	4687.68	5010.87	4397.15	5.3525	3622.02	1638.94	517.928	5056.65	6827.97	8027.46	6649.5	50.4183	5191.89	2609.96	901.962	8725.73	31.509	218.749	28.868	209.707	206.293	210.380	210.914	206.647	8192	-8191	8192	8192	254	
76313.742	1	1	0	0	4602.01	4971.17	4361.41	3.569	3634.89	1614.66	529.648	4985.46	6825.89	8011.23	6695.54	49.0433	5231.59	2589.82	920.755	8652	30.318	219.809	28.711	273.854	206.945	209.049	213.805	206.791	8192	-8191	8192	8192	254	
76313.789	1	1	0	0	4663.2	4968.56	4397.27	8.48905	3569.53	1646.9	533.738	5008.9	6817.51	8051.87	6694.77	52.7115	5174.8	2611.05	913.707	8639.87	30.950	218.855	29.179	241.896	207.039	209.675	211.103	206.655	8192	-8191	8192	8192	254	
76313.844	1	1	0	0	4657.26	4923.96	4404.58	3.24482	3555.54	1639.01	512.65	5006.03	6833.49	7993.67	6702.61	53.4952	5159.65	2595.54	907.615	8613.44	30.600	219.452	29.963	263.941	206.787	209.292	213.464	205.778	8192	-8191	8192	8192	254	
76313.891	1	1	0	0	4671.16	5013.63	4435.28	7.41929	3537.25	1621.52	496.462	4965.9	6837.22	7984.53	6724.05	55.6538	5152.42	2608.47	902.635	8663.78	30.888	219.239	29.018	285.539	206.821	211.683	214.912	207.068	8192	-8191	8192	8192	254	
76313.938	1	1	0	0	4614.77	4976.79	4387.51	1.32118	3538.76	1668.05	503.604	5005.37	6850.35	8053.91	6685.95	53.1298	5147.12	2618.52	908.731	8686.52	30.577	218.811	29.266	234.238	206.368	209.236	213.130	206.850	8192	-8191	8192	8192	254	
76313.984	1	1	0	0	4607.66	4994.79	4507.25	5.12422	3572.36	1631.79	526.903	5051.52	6851.58	8015.32	6732	54.1779	5175.82	2593.76	917.096	8694.26	30.353	219.025	29.439	192.108	206.701	209.471	212.779	206.380	8192	-8191	8192	8192	254	
76314.055	1	1	0	0	4557.91	5046.83	4402.71	5.24006	3498.23	1656.22	508.202	5018.82	6796.73	8031.51	6685.67	54.4327	5139.83	2597.01	912.639	8654.78	30.931	219.117	28.748	257.742	205.995	210.771	215.024	206.938	8192	-8191	8192	8192	254	
76314.102	1	1	0	0	4644.43	4867.37	4370.01	4.87532	3568.92	1651.4	528.515	5097.47	6817.7	7952.02	6663.63	50.3125	5157.55	2610.09	914.139	8683.63	30.687	218.465	28.954	268.415	206.235	209.356	212.310	206.423	8192	-8191	8192	8192	254	
76314.148	1	1	0	0	4632.11	4971.82	4351.81	1.63239	3602.79	1634.51	523.037	4988.97	6812.17	7992.59	6637.29	51.4712	5169.71	2592.99	898.365	8673.56	30.117	218.750	28.591	226.435	206.860	210.501	213.729	207.096	8192	-8191	8192	8192	254	
76314.203	1	1	0	0	4554.83	4916.75	4402.49	6.17168	3570	1639.95	521.239	5032.17	6751.11	7995.3	6698.25	54.7212	5194.99	2599.03	907.62	8712.1	30.863	219.073	29.183	210.499	206.948	210.762	213.346	206.073	8192	-8191	8192	8192	254	
76314.203	1	1	0	0	4639.73	4936.36	4437.13	5.0251	3532.41	1689.27	521.186	5032.84	6789.34	8003.56	6691.32	52.7404	5146.6	2619.73	907.005	8700.63	30.553	219.028	29.255	155.500	206.559	208.614	211.553	206.431	8192	-8191	8192	8192	254	
76314.250	1	1	0	0	4681.08	4995.24	4422.28	10.7627	3553.78	1666.45	504.371	4972.94	6888.4	8013.95	6688.41	57.5	5147.96	2624.13	908.163	8661.89	31.235	218.691	29.107	181.393	206.098	209.711	213.738	207.077	8192	-8191	8192	8192	254	
76314.320	1	1	0	0	4664.67	4923.28	4442.39	9.23203	3519.36	1676.33	524.611	4987.71	6807.64	8004.62	6685.63	54.0385	5148.8	2624.14	922.014	8716.47	31.009	219.447	29.690	191.723	206.405	209.338	212.947	206.276	8192	-8191	8192	8192	254	
76314.367	1	1	0	0	4637.68	4983.42	4451.51	6.68258	3526.72	1627.7	523.846	5012.67	6811.67	8017.26	6720.9	49.3173	5137.14	2581.16	899.957	8686.22	30.505	219.262	29.168	207.888	206.086	210.109	214.010	206.774	8192	-8191	8192	8192	254	
76314.414	1	1	0	0	4654.86	5048.84	4366.52	8.13331	3576.33	1672.45	515.285	5008.87	6866.47	8049.58	6660.2	58.024	5175.39	2638.2	912.034	8645	31.777	219.471	29.295	224.320	207.048	209.728	216.358	206.095	8192	-8191	8192	8192	254	
76314.461	1	1	0	0	4556.05	5043.71	4390.34	9.05966	3557.61	1619.29	514.491	5026.52	6773.51	8013.43	6718.42	49.4327	5137.77	2592.22	921.976	8682.34	31.357	219.157	29.030	270.936	206.789	209.919	211.194	206.940	8192	-8191	8192	8192	254	
76314.516	1	1	0	0	4538.52	4984.25	4481.6	4.90081	3614.24	1635.09	503.869	5036.28	6804.15	8058.56	6696.89	49.0385	5189.67	2583.65	898.26	8679.11	31.266	218.872	29.490	286.002	206.301	211.465	212.228	207.190	8192	-8191	8192	8192	254	
76314.562	1	1	0	0	4669.23	4935.69	4409.3	6.45419	3546.98	1684.89	497.211	4954.05	6856.23	7989.12	6679.44	47.851	5171.28	2618.65	909.543	8686.88	31.161	219.348	29.800	193.766	206.796	209.842	213.269	206.748	8192	-8191	8192	8192	254	
76314.609	1	1	0	0	4599.25	4944.45	4382.18	7.61528	3622.04	1681.41	521.101	5042.64	6792.77	7960.48	6679.38	53.8029	5194.57	2648.47	932.37	8688.14	31.230	218.695	30.182	210.170	206.590	210.038	210.367	206.495	8192	-8191	8192	8192	254	
76314.656	1	1	0	0	4657.21	5015.24	4431.42	7.84355	3577.97	1708.62	522.913	5083.72	6833.42	8045.79	6704.17	52.2885	5185.04	2628.56	912.26	8712.61	31.222	219.600	29.276	210.233	206.734	209.992	212.014	206.550	8192	-8191	8192	8192	254	
76314.727	1	1	0	0	4652.92	5110.13	4454.11	7.25304	3571.92	1635.59	519.63	5035.07	6816.37	8055.22	6728	50.226	5149.7	2599.37	910.529	8693.86	31.047	219.431	29.527	238.862	206.391	211.481	214.043	206.019	8192	-8191	8192	8192	254	
76314.773	1	1	0	0	4579.64	4892.2	4366.91	1.48524	3518.64	1610.33	536.845	5033.12	6797.25	7986.29	6666.63	51.5048	5165.48	2584.41	927.346	8689.03	30.084	219.251	29.960	242.085	207.170	209.820	215.761	206.434	8192	-8191	8192	8192	254	
76314.820	1	1	0	0	4608.8	4946.56	4386.2	3.16144	3611.6	1670.84	534.208	5109.99	6821.65	8004.2	6674.5	53.6731	5178.01	2626.84	906.726	8731.14	30.603	218.616	29.783	233.928	206.335	208.604	212.893	205.450	8192	-8191	8192	8192	254	
76314.867	1	1	0	0	4702.9	4857.24	4401.46	7.48036	3589.34	1664.07	500.229	5062.66	6853.76	7956.02	6679.72	56.0144	5162.01	2618.55	893.26	8690.76	30.753	219.266	29.281	245.539	206.692	209.195	213.222	206.591	8192	-8191	8192	8192	254	
76314.922	1	1	0	0	4607.45	4913.77	4397.87	10.254	3537.27	1675.9	530.803	4983.02	6809.52	7974.85	6644.5	54.8413	5163.37	2619.49	910.971	8719.14	31.672	219.988	29.881	237.512	206.117	209.689	212.090	206.634	8192	-8191	8192	8192	254	
76314.969	1	1	0	0	4670.83	4975.19	4469.25	5.52554	3559.02	1678.54	511.414	5002.03	6823.81	8049.71	6743.96	50.2115	5152.12	2625.96	902.091	8659.65	30.792	218.688	29.506	202.131	206.517	210.993	213.389	206.552	8192	-8191	8192	8192	254	
76314.969	1	1	0	0	4667.13	5039.35	4375.8	8.98277	3525.5	1616.29	533.557	5017.78	6822.95	8028.37	6682.55	53.6394	5160.37	2597.41	902.303	8692.1	31.577	218.757	29.300	286.513	206.721	208.539	213.662	206.769	8192	-8191	8192	8192	254	
76315.016	1	1	0	0	4611.58	4911.08	4449.11	4.17996	3584.27	1641.44	531.829	5115.84	6790.43	7992.96	6697.17	49.0481	5165.19	2592.82	916.332	8741.23	31.193	219.403	29.215	213.963	207.507	210.131	213.891	206.605	8192	-8191	8192	8192	254	
76315.062	1	1	0	0	4663.99	5013.73	4457.88	6.67825	3586.91	1624.87	524.669	5026.94	6826.68	8058.99	6763.03	56.8702	5170.93	2609.52	914.413	8670.2	30.692	219.628	29.547	197.939	207.266	209.198	212.986	206.456	8192	-8191	8192	8192	254	
76315.109	1	1	0	0	4610.1	4946.74	4297.61	8.85767	3670.87	1607.17	517.276	5075.19	6784.65	7977.69	6650.9	55.3846	5220.41	2576.54	916.125	8712.42	30.838	218.446	30.196	199.219	206.706	209.551	210.992	206.731	8192	-8191	8192	8192	254	
76315.188	1	1	0	0	4626.13	4907.36	4383.34	7.33853	3549.51	1619.87	509.195	5055.35	6822.65	7934.79	6699.04	49.1154	5150.48	2600.05	888.168	8685.77	30.967	219.237	30.043	294.292	206.594	210.982	211.227	206.379	8192	-8191	8192	8192	254	
76315.234	1	1	0	0	4603.54	4964.9	4416.59	3.36394	3651.32	1623.2	507.258	4996.13	6811.25	8000.44	6652.37	54.1731	5217.23	2600.11	905.514	8637.65	30.699	219.874	29.174	254.999	206.402	209.444	213.797	206.366	8192	-8191	8192	8192	254	
76315.281	1	1	0	0	4605.86	5007.34	4425.07	5.50006	3538.51	1622.1	527.679	5055.12	6813.77	8011.53	6700.82	54.774	5141.39	2588.82	921.832	8718.44	31.303	219.765	28.448	260.130	206.650	209.474	214.000	206.595	8192	-8191	8192	8192	254	
76315.328	1	1	0	0	4643.02	5021.96	4454.93	5.93982	3591.26	1640.14	532.398	4991.29	6809.82	7980.24	6699.23	53	5146.16	2594.86	914.837	8676.59	30.744	218.612	29.166	244.088	207.057	210.615	211.566	207.600	8192	-8191	8192	8192	254	
76315.375	1	1	0	0	4654.66	4957.59	4375.87	7.02924	3603.03	1665.45	498.978	5072.33	6849.54	7995.44	6695.54	55.2692	5176.91	2622.74	912.053	8725.65	31.328	219.361	29.514	142.357	205.861	209.692	213.553	206.088	8192	-8191	8192	8192	254	
76315.422	1	1	0	0	4663.34	4905.49	4402.76	5.57417	3559.17	1673.32	519.74	5025.14	6854.44	7948.05	6689.25	56.4231	5157.5	2637.91	913.308	8681.99	29.783	218.997	29.398	241.269	206.588	209.720	214.049	207.254	8192	-8191	8192	8192	254	
76315.469	1	1	0	0	4625.1	4925.05	4411.6	2.92481	3567.39	1646.52	503.967	4986.62	6787.42	7962	6670.42	51.3894	5145.42	2591.29	903.721	8611.75	31.220	218.959	28.523	118.220	206.536	208.827	208.889	205.929	8192	-8191	8192	8192	254	
76315.523	1	1	0	0	4595.59	4956.87	4433.48	11.6508	3553.28	1677.87	518.467	4979.94	6805.72	7989.2	6712.04	54.7596	5151.44	2612.22	910.269	8652.06	31.066	219.886	29.593	245.632	206.345	211.092	212.421	205.981	8192	-8191	8192	8192	254	
76315.594	1	1	0	0	4733.19	4928.81	4361.22	6.12402	3520	1630.53	507.74	5064.24	6889.81	7964.66	6670.68	56.1442	5156.05	2588.75	921.394	8707.96	30.331	219.718	29.141	253.756	206.183	210.223	213.377	206.053	8192	-8191	8192	8192	254	
76315.641	1	1	0	0	4615.61	4952.94	4365.69	7.33022	3613.47	1659.32	522.639	5059.36	6841.46	7989.44	6646.8	56.0913	5201.38	2614.34	915.5	8694.86	30.423	219.041	29.361	239.301	206.821	209.198	213.097	206.686	8192	-8191	8192	8192	254	
76315.688	1	1	0	0	4637.23	5002.66	4395.96	6.0118	3543.64	1651.23	511.474	5015.42	6830.38	8015.01	6699	53.351	5146.19	2606.91	909.788	8706.2	31.418	219.190	29.012	190.296	206.036	209.274	214.170	205.947	8192	-8191	8192	8192	254	
76315.734	1	1	0	0	4578.07	4979.7	4444.46	10.9363	3581.59	1646.55	499.901	5032.94	6762.43	7969.4	6733.61	58.4663	5171.91	2593.14	897.841	8696.07	31.142	219.379	30.597	215.509	205.581	211.307	210.805	207.004	8192	-8191	8192	8192	254	
76315.734	1	1	0	0	4641.25	4997.25	4434.88	2.71422	3544.93	1668.57	524.551	4936.32	6830.08	8014.9	6714.39	47.2212	5150.46	2626.5	911.615	8623.52	31.494	219.240	29.472	208.190	206.584	210.331	215.134	207.356	8192	-8191	8192	8192	254	
76315.781	1	1	0	0	4683.99	4982.45	4371.38	11.7145	3561.29	1640.76	521.907	5082.69	6844.69	8003.11	6679.7	50.9183	5201.16	2591.11	921.077	8756.2	30.731	218.620	29.012	230.561	206.509	210.852	212.262	206.594	8192	-8191	8192	8192	254	
76315.828	1	1	0	0	4718.43	4973.96	4463.78	10.4386	3608.77	1655.34	492.33	5032.65	6862.97	8048.6	6704.18	52.5673	5177.19	2609.04	902.938	8736.32	31.309	218.733	30.077	197.302	206.988	208.681	213.157	206.209	8192	-8191	8192	8192	254	
76315.883	1	1	0	0	4656.24	4876.35	4421.29	3.91611	3573.34	1662.19	503.014	5050.99	6835.07	7958.03	6723.75	53.2981	5162.39	2601.28	894.26	8690.43	30.897	219.405	29.911	213.541	206.775	209.039	212.688	206.699	8192	-8191	8192	8192	254	
76315.953	1	1	0	0	4655.42	4946.62	4460.75	4.32427	3576.11	1639.61	507.796	5041.21	6862.42	7981.65	6701.25	50.1923	5159.84	2623.62	903.062	8638.46	31.169	219.110	29.307	192.027	205.862	210.643	212.311	206.266	8192	-8191	8192	8192	254	
76316.000	1	1	0	0	4697.64	4970.74	4411.04	7.58634	3503.89	1675.84	496.836	5030.69	6861.65	8006.58	6663.38	61.2452	5124.35	2613.02	905.962	8665.1	30.405	219.263	29.265	199.342	206.200	210.131	211.706	206.141	8192	-8191	8192	8192	254	
76316.047	1	1	2	0	4643.12	4983.04	4394.43	4.18282	3617.44	1643.09	486.872	5033.85	6826.21	7994.95	6703.49	58.3029	5220.11	2601.59	897.433	8710.94	30.130	219.039	29.396	295.452	206.151	210.480	213.741	205.905	8192	-8191	8192	8192	254	
76316.094	1	1	0	0	4715.14	4974.31	4396.62	5.54986	3568.35	1639.07	514.321	5015.38	6876.85	8024.13	6687.28	55.8173	5169.41	2588.22	900.058	8721.91	31.375	219.878	30.860	262.129	206.312	209.845	215.241	206.747	8192	-8191	8192	8192	254	
76316.141	1	1	0	0	4656.38	5016.77	4444.27	7.31833	3588.86	1614.39	523.718	4959.88	6847.04	8045.74	6738.57	57.9615	5177.91	2593.01	920.346	8657.56	31.037	219.222	28.469	194.170	206.290	209.331	214.266	206.827	8192	-8191	8192	8192	254	
76316.195	1	1	0	0	4648.4	4955.4	4405.42	13.0668	3582.18	1689.98	510.864	5096.74	6817.22	7987.22	6720.67	58.476	5178.55	2632.54	907.394	8718.18	30.586	219.112	29.976	259.007	206.031	209.154	213.551	206.400	8192	-8191	8192	8192	254	
76316.242	1	1	0	0	4671.67	4963.91	4432.16	11.1435	3528.65	1666.54	512.059	5057.95	6841.28	7985.36	6712.75	58.4615	5131.29	2618.29	915.423	8756.12	30.767	219.516	28.700	246.643	205.491	209.817	212.352	206.563	8192	-8191	8192	8192	254	
76316.289	1	1	0	0	4626.49	4973.81	4465.52	11.6598	3633.72	1694.42	519.222	5151.58	6843.69	7958.99	6718.89	55.3173	5158.57	2631.52	923.649	8720.86	31.377	219.531	29.508	184.244	206.595	209.941	214.312	205.929	8192	-8191	8192	8192	254	
76316.359	1	1	0	0	4582.32	4990.13	4400.05	9.02457	3534.41	1614.62	509.298	5039.1	6819.75	8042.28	6671.23	57.1827	5158.83	2600.72	903.111	8708.51	30.241	219.173	30.179	224.844	206.765	209.510	213.173	206.541	8192	-8191	8192	8192	254	
76316.406	1	1	0	0	4667.24	4991.44	4409.6	9.16513	3572.63	1654.44	511.756	5112.41	6818.36	7978.47	6710.62	53.5	5148.57	2628.21	913.673	8696.37	30.970	219.125	29.312	278.143	206.688	209.699	210.442	206.452	8192	-8191	8192	8192	254	
76316.453	1	1	0	0	4587.11	4951.99	4419.1	10.093	3610.7	1646.45	496.047	4957.29	6765.58	7933.53	6719.44	58.0769	5184.88	2596.75	912.726	8680.72	31.841	218.851	28.941	238.383	206.862	209.807	213.278	206.683	8192	-8191	8192	8192	254	
76316.508	1	1	0	0	4691.94	4952.96	4380.95	5.03965	3542.6	1670.01	539.472	5115.79	6848.27	8026.33	6664.23	57.8317	5161.28	2647.76	932.745	8717.13	31.608	218.651	29.605	242.235	205.893	210.058	213.905	207.213	8192	-8191	8192	8192	254	
76316.508	1	1	0	0	4626.61	4894.68	4406.11	12.3401	3584.63	1656.77	519.832	5020.62	6821.33	7965.82	6704.86	66.7163	5179.93	2630.12	920.423	8725.38	31.256	219.588	29.426	222.822	206.315	210.602	213.803	207.028	8192	-8191	8192	8192	254	
76316.555	1	1	0	0	4624.18	5009.71	4310.28	9.3601	3568.95	1639.93	523.203	4944.03	6814.9	8071.12	6669.05	74.5673	5193.68	2600.9	946.111	8622.14	30.547	218.905	29.813	194.255	205.707	210.427	215.052	206.461	8192	-8191	8192	8192	254	
76316.625	1	1	0	0	4626.07	4896.29	4360.81	6.70126	3593.73	1631.8	512.246	4980.39	6834.75	7977.29	6717.03	77.4615	5206.87	2640.23	922.76	8648.57	30.679	219.022	29.579	212.970	205.870	210.156	214.436	206.697	8192	-8191	8192	8192	254	
76316.672	1	1	0	0	4608.05	4993.06	4449.51	6.79865	3560.49	1599.44	531.297	4994.54	6829.38	8001.11	6738.44	77.1298	5162.99	2609.21	954.255	8689.2	30.942	219.124	29.477	231.064	205.831	210.688	213.782	206.213	8192	-8191	8192	8192	254	
76316.719	1	1	0	0	4663.94	4936.7	4447.47	2.68922	3551.21	1658.07	525.507	5100.53	6857.05	7987.44	6749.61	84.6442	5182.47	2636.57	935.106	8746.17	30.689	218.861	29.740	238.636	206.490	209.631	213.885	206.199	8192	-8191	8192	8192	254	
76316.766	1	1	0	0	4634.59	5009.01	4308.88	7.18893	3591.26	1684.25	540.92	5023.22	6874.94	8052.43	6677.39	88.8269	5181.76	2664.48	948.25	8796.91	30.631	218.833	28.756	191.651	205.887	211.050	212.431	205.848	8192	-8191	8192	8192	254	
76316.820	1	1	0	0	4592.1	4868.42	4416.87	4.40796	3529.57	1680.52	521.206	5037.31	6836.62	8010.32	6712.17	88.9519	5187.49	2663.09	949.024	8708.29	30.773	219.470	29.697	174.130	206.190	210.059	212.059	206.584	8192	-8191	8192	8192	254	
76316.867	1	1	0	0	4601.3	4925.01	4391.62	8.35604	3596.73	1619.27	534.852	5056.33	6818.26	8062.06	6713.16	86.6442	5212.02	2632.48	951.077	8761.31	31.077	219.744	29.574	169.865	206.511	208.586	211.196	206.749	8192	-8191	8192	8192	254	
76316.914	1	1	0	0	4599.1	5021.78	4403.73	4.4755	3611.95	1682.73	504.115	5016.49	6818.42	8090.47	6702.85	85.5529	5208.68	2648.87	935.596	8702.21	31.190	219.725	29.156	193.074	206.434	210.107	213.237	206.778	8192	-8191	8192	8192	254	
76316.961	1	1	0	0	4641.12	4936.82	4422.23	9.98791	3598.8	1632.95	523.599	4996.62	6856.88	8000.42	6714.36	86.3942	5210.08	2621.85	956.245	8678.71	30.956	219.090	29.451	262.430	205.866	210.588	212.745	207.349	8192	-8191	8192	8192	254	
76317.031	1	1	0	0	4607.49	4928.26	4324.48	13.7343	3557.88	1666.5	511.305	5055.54	6850.72	7993.42	6684.44	103.365	5204.58	2650.82	962.769	8784.53	30.928	218.713	29.339	234.273	206.911	209.621	211.808	207.299	8192	-8191	8192	8192	254	
76317.078	1	1	0	0	4602.8	5007.92	4415.88	2.16595	3602.11	1566.66	507.727	5045.5	6879.83	8055.71	6765.75	134.774	5262.32	2641.5	991.029	8740.25	31.055	219.013	29.115	105.254	207.133	208.904	216.082	206.557	8192	-8191	8192	8192	254	
76317.125	1	1	0	0	4632.31	4974.08	4376.83	7.45699	3546.69	1671	486.016	5004.99	6906.84	8106.84	6752.43	153.707	5278.38	2701.85	1016.01	8784.62	30.602	218.932	29.847	261.733	206.028	209.045	215.722	207.109	8192	-8191	8192	8192	254	
76317.180	1	1	0	0	4559.21	4993.3	4387.85	0.381758	3563.34	1609.05	523.794	4966.36	6879.1	8109.72	6756.23	175.288	5249.72	2752.98	1036.29	8858.33	30.998	219.372	29.382	288.323	205.719	209.822	211.215	206.913	8192	-8191	8192	8192	254	
76317.227	1	1	0	0	4639.2	4977.81	4307.34	11.549	3543.36	1665.16	529.112	5055.95	6954.55	8124.96	6788.67	197.755	5285.53	2774.12	1062.17	8829.6	31.383	220.042	29.082	271.645	205.851	209.565	213.586	206.184	8192	-8191	8192	8192	254	
76317.273	1	1	0	0	4578.16	4959.85	4483.27	11.6806	3526.57	1655	513.726	5022.51	6933.44	8136.15	6903.11	222.034	5292.96	2825.23	1094.74	8839.49	30.621	219.233	29.757	335.506	206.003	208.694	214.309	207.119	8192	-8191	8192	8192	254	
76317.273	1	1	0	0	4644.95	4938.13	4349.69	4.9353	3537.02	1653.55	521.275	4968.81	6943.5	8180.23	6837.51	247.889	5349.34	2813.26	1127.67	8865.01	31.728	219.443	29.494	195.279	205.804	210.802	214.611	207.266	8192	-8191	8192	8192	254	
76317.320	1	1	0	0	4622.27	4973.42	4426.36	13.0439	3581.52	1689.04	515.619	5094.43	7055.89	8250.36	6915.35	275.803	5360.55	2872.12	1145.28	8985.23	31.266	219.710	29.522	230.675	205.783	209.223	213.871	206.996	8192	-8191	8192	8192	254	
76317.367	1	1	0	0	4568.82	4970.63	4403.03	9.17027	3549.86	1637.14	513.452	5095.08	7034.55	8242.59	6958.97	302.476	5391.42	2850.92	1151.93	8942.26	31.410	220.028	29.729	231.658	206.437	210.204	211.688	206.088	8192	-8191	8192	8192	254	
76317.414	1	1	0	0	4637.6	4978.38	4436.48	5.59467	3613.32	1684.91	520.176	5074.72	7070.64	8252	6930.92	284.692	5425.49	2877.52	1134.46	8919.81	31.582	219.222	28.791	111.948	205.766	209.510	209.875	206.594	8192	-8191	8192	8192	254	
76317.484	1	1	0	0	4627.59	4860.14	4386.98	11.5965	3562.07	1667.47	497.03	5092.72	7016.71	8147.78	6895.86	302.005	5388.97	2881.28	1159.11	8946.59	30.945	218.510	29.754	219.792	205.853	210.388	209.850	206.664	8192	-8191	8192	8192	254	
76317.539	1	1	0	0	4630.16	4953.77	4425.64	13.874	3495.89	1636.63	526.345	5086.52	7053.75	8284.89	6992.26	325.538	5382.6	2903.08	1213.61	9002.58	31.042	218.563	29.572	185.874	206.563	210.923	211.934	206.741	8192	-8191	8192	8192	254	
76317.586	1	1	0	0	4613.55	4915.25	4429.35	3.52322	3541.71	1661.66	505.205	4894.33	7138.02	8301.68	7018.92	401.673	5522.96	2983.51	1276.68	8945.87	31.163	220.007	28.782	120.628	206.258	209.765	211.703	205.773	8192	-8191	8192	8192	254	
76317.633	1	1	0	0	4665.74	4997.6	4374.64	7.167	3586.17	1659.95	489.073	4971.61	7213.2	8378.66	7067.27	433.966	5549.1	2993.53	1303.21	9067.02	30.807	219.385	29.108	41.477	206.640	209.874	212.537	206.402	8192	-8191	8192	8192	254	
76317.680	1	1	0	0	4651.18	4916.93	4415.95	6.74764	3547.82	1663.25	521.644	4982.34	7233.71	8317.39	7077.68	460.726	5595.46	2997.75	1314.41	9052.07	31.081	218.894	29.237	358.439	206.784	207.958	212.347	206.459	8192	-8191	8192	8192	254	
76317.727	1	1	0	0	4683.3	4962.95	4376.43	9.83406	3566.4	1668.23	532.223	5011.87	7267.36	8377.9	7057.05	455.663	5550.33	3024.72	1302.5	9060.08	29.999	219.383	29.016	0.380	206.476	208.716	213.730	206.364	8192	-8191	8192	8192	254	
76317.773	1	1	0	0	4611.36	5000.31	4421.71	13.0896	3517.3	1644.88	514.595	4956.25	7204.84	8406.41	7100.13	463.909	5531.58	3012.74	1307.73	8965.81	31.344	219.302	28.720	193.166	206.705	209.660	210.905	207.268	8192	-8191	8192	8192	254	
76317.820	1	1	0	0	4543.59	4920.85	4314.56	5.99178	3465.86	1601.39	517.665	4843.17	7112.77	8236.54	6926.59	451.812	5420.42	2934.04	1305.72	8840.67	30.506	219.681	29.010	135.047	207.015	209.859	214.264	206.875	8192	-8191	8192	8192	254	
76317.898	1	1	0	0	4481.6	4760.9	4238.39	20.7117	3487.16	1653.99	504.739	4975.87	7020.18	8119.2	6868.25	455.01	5487.93	2995.14	1325.41	8983.42	30.906	219.057	29.598	143.297	207.011	209.369	212.569	206.555	8192	-8191	8192	8192	254	
76317.945	1	1	0	0	4585.93	4954.85	4308.72	4.19126	3435.76	1554.2	474.204	4464.07	7231.31	8365.12	7047.91	494.784	5408.14	2888.82	1252.75	8132.88	30.805	219.577	28.856	80.291	206.790	209.974	213.836	206.062	8192	-8191	8192	8192	254	
76317.992	1	1	0	0	3826.24	3864.48	3312.83	4.98322	2145.03	861.059	172.03	1153.56	6067.97	6596.81	5362.48	377.115	3423.71	1596.61	569.952	2178.1	30.687	219.071	29.589	293.928	206.747	211.958	211.894	206.337	8192	-8191	8192	8192	254	
76318.039	1	1	0	0	377.418	156.509	71.1023	4.20017	13.4817	14.2644	3.24842	43.9321	738.538	399.654	271.447	169.567	171.433	172	283.5	1682.62	29.484	214.695	14.824	111.959	140.880	95.397	135.022	125.496	8192	-8191	8192	8192	254	
76318.039	1	1	0	65536	348.835	26.0418	261.84	114.527	157.547	139.304	34.4227	0	20392.8	32208.1	24979.1	24213.1	27398.4	31381.1	32734.7	32767	104.921	310.105	306.429	88.132	286.744	95.658	30.047	180.000	8192	-8191	8192	8192	254	
76318.086	1	1	0	65536	0	0	0	0	10.3002	55.2606	65.7127	49.1211	32767	32767	32767	32767	32733.9	32682.1	32570.1	32073.9	180.000	180.000	180.000	180.000	314.131	198.367	194.529	188.451	8192	-8191	8192	8192	254	
76318.133	1	1	0	65536	149.666	110.424	40.7979	5.01532	1.67308	0	0	0	32079.4	32493.1	32704	32735.7	32766.2	32767	32767	32767	154.932	190.876	41.173	191.038	270.000	180.000	180.000	180.000	8192	-8191	8192	8192	254	
76318.188	1	1	0	65536	0	0	0	0	0	0	0	0	32767	32767	32767	32767	32767	32767	32767	32767	180.000	180.000	180.000	180.000	180.000	180.000	180.000	180.000	8192	-8191	8192	8192	254	
76318.258	1	1	0	65536	0	0	0	0	0	0	0	0	32767	32767	32767	32767	32767	32767	32767	32767	180.000	180.000	180.000	180.000	180.000	180.000	180.000	180.000	8192	-8191	8192	8192	254	
76318.305	1	1	0	65536	0	0	0	0	0	0	0	0	32767	32767	32767	32767	32767	32767	32767	32767	180.000	180.000	180.000	180.000	180.000	180.000	180.000	180.000	8192	-8191	8192	8192	254	
76318.352	1	1	0	65536	0	0	0	0	0	0	0	0	32767	32767	32767	32767	32767	32767	32767	32767	180.000	180.000	180.000	180.000	180.000	180.000	180.000	180.000	8192	-8191	8192	8192	254	
76318.398	1	1	0	65536	0	96.1604	86.3626	90.5661	68.9535	57.8835	239.708	79.1281	32767	32418.7	31943.8	32016.9	32108.4	31375.2	28348.2	24108.6	180.000	292.952	270.221	155.339	82.507	296.984	238.401	289.286	8192	-8191	8192	8192	254	
76318.445	1	1	0	0	82.0365	130.709	147.254	143.313	110.979	13.5361	125.345	62.0962	22015	21229.6	20512.8	19630.2	16699.4	13044.6	13724.4	16961.9	206.171	34.334	247.230	206.567	313.991	149.705	131.157	132.872	8192	-8191	8192	8192	254	
76318.500	1	1	0	0	45.7956	87.6736	16.0868	109.209	69.6817	63.6539	119.536	110.043	17767.3	17648.1	17427.5	17452.2	17251.7	17293	17099.8	17151.9	104.506	340.395	122.915	317.491	66.094	318.317	168.208	304.886	8192	-8191	8192	8192	254	
76318.570	1	1	0	0	122.178	83.2035	29.1847	142.838	89.4534	71.2924	153.617	26.4694	17184.9	17220.4	17290.1	17236.3	17204.3	17193.7	17204.8	17153.2	123.706	335.694	155.267	243.594	54.452	345.717	232.307	139.585	8192	-8191	8192	8192	254	
76318.617	1	1	0	0	77.2472	66.2929	58.3894	28.4429	54.1049	73.8447	48.9642	75.7644	17130.9	17063.6	16846	16897.3	16673.1	16577.1	16394.8	16274.9	98.578	242.365	217.822	308.450	326.729	256.783	238.402	339.883	8192	-8191	8192	8192	254	
76318.664	1	1	0	0	135.336	144.654	47.1645	31.0049	64.0935	15.1545	23.5603	86.7835	16149.5	15911.1	15768.3	15717.7	15515.4	15439.1	15332.5	15335.2	315.013	70.524	300.688	284.729	17.385	156.225	240.485	8.344	8192	-8191	8192	8192	254	
76318.711	1	1	0	0	44.1071	126.039	72.6953	56.8042	28.2849	30.268	113.491	36.4773	15137.6	15075.8	15020.4	14818	14917.5	14775.4	14858.5	14755.7	233.800	185.358	93.274	190.225	8.892	255.964	111.909	291.176	8192	-8191	8192	8192	254	
76318.758	1	1	0	0	93.4091	35.7798	74.3348	39.5919	54.154	37.1159	81.4897	55.406	14679.9	14618.4	14653.1	14605.1	14809.9	15132.6	15335.1	15434.5	136.965	45.573	248.415	103.779	171.492	174.407	234.245	52.422	8192	-8191	8192	8192	254	
76318.805	1	1	0	0	39.4554	34.562	5.90883	95.3426	132.528	26.7475	43.9724	85.3786	15476.6	15658.3	15760.8	15814.1	15863.2	15899.7	15835.3	15937.2	248.547	166.182	151.695	175.555	50.123	99.981	215.880	76.973	8192	-8191	8192	8192	254	
76318.812	1	1	0	0	112.331	24.6217	53.9185	138.448	58.6021	76.4971	38.5975	131.422	15960	15861.9	15957.7	15927.5	15884.6	15948.6	15983.2	16011.7	201.447	356.145	169.285	264.298	264.642	26.287	218.541	42.551	8192	-8191	8192	8192	254	
76318.859	1	1	0	0	134.626	85.9932	34.4637	61.6288	43.6525	36.6975	202.708	64.5316	16083.5	16193.4	16267.6	16411.9	16435.4	16543.2	16644.4	16698.7	53.125	80.499	342.902	126.134	322.279	273.876	71.950	226.731	8192	-8191	8192	8192	254	
76318.930	1	1	0	0	69.7313	93.4486	130.559	55.5924	30.4024	44.2326	30.3203	117.928	16746.8	16898.9	16805.7	16779	16744.9	16788.3	16751	16613.4	327.694	141.759	350.035	78.671	135.678	281.285	250.394	192.430	8192	-8191	8192	8192	254	
76318.977	1	1	0	0	58.5338	87.3643	89.7165	78.4693	62.203	27.5181	100.048	112.67	16556.1	16477.3	16386.9	16391.9	16321.2	16339.6	16474.4	16495.5	160.049	95.981	11.622	205.142	31.904	220.143	106.318	178.845	8192	-8191	8192	8192	254	
76319.023	1	1	0	0	64.8873	61.8619	75.4949	26.0005	87.4791	46.4864	33.7501	71.4895	16545.2	16683.9	16766.5	16996.4	17117.1	17285.6	17449.2	17677.5	79.796	115.011	28.101	231.047	268.051	316.788	186.235	136.107	8192	-8191	8192	8192	254	
76319.070	1	1	0	0	31.3252	111.963	48.1669	49.3636	55.116	134.858	101.852	80.5332	17801.5	17966.2	18200.3	18421.9	18594.1	18872.9	19250	19543.1	122.312	9.633	307.705	153.758	21.760	235.077	343.226	242.189	8192	-8191	8192	8192	254	
76319.117	1	1	0	0	42.8157	94.0581	48.1302	51.2472	105.094	146.824	74.3785	164.262	20008.9	20368.3	20791.8	21289.2	21845.1	22346.4	22753.4	23129.2	195.526	63.948	173.492	253.375	255.696	133.773	252.718	179.138	8192	-8191	8192	8192	254	
76319.172	1	1	0	0	94.7554	123.249	101.548	92.9591	74.8897	23.8652	59.4892	31.1067	23463.8	23718.6	24103.6	24215.9	24584.2	24558.8	24706.1	24569.4	359.564	111.565	125.783	235.597	282.489	49.008	24.691	203.474	8192	-8191	8192	8192	254	
76319.219	1	1	0	65536	87.588	147.525	79.4659	131.051	101.915	80.4911	176.496	44.7656	24764.4	24783.9	24992.5	25358.5	25640.2	26113.1	26660.3	27329.5	4.759	185.632	344.841	319.327	51.433	82.550	186.129	129.054	8192	-8191	8192	8192	254	
76319.266	1	1	0	65536	67.307	268.107	113.059	73.6164	45.5649	37.6613	61.4626	123.205	28376	29719.3	30895.8	31634.7	32059.1	32334.5	32460.5	32512	244.730	47.167	272.141	259.939	39.765	191.673	245.663	295.880	8192	-8191	8192	8192	254	
76319.312	1	1	0	65536	93.9431	47.3448	35.3375	36.8668	44.9173	19.8992	30.7571	34.6991	32540	32603.6	32632.5	32603.2	32660.3	32708.2	32675.3	32666.9	273.046	74.808	40.107	267.340	297.446	313.317	88.492	123.476	8192	-8191	8192	8192	254	
76319.359	1	1	0	65536	42.4088	29.4679	77.0691	52.1483	34.7793	94.9743	116.722	86.4965	32570.7	32382.2	31919.6	31022.2	30393.9	29672.5	28925.2	28557.4	188.368	207.893	252.783	249.797	86.748	297.279	345.841	33.448	8192	-8191	8192	8192	254	
76319.430	1	1	0	0	77.1974	101.787	118.67	48.0657	83.5717	139.79	106.291	92.9786	28450	28528.3	28509.3	28222.4	27822.2	27435	27215.1	26908.4	325.934	179.550	170.993	182.810	299.271	123.834	2.255	67.720	8192	-8191	8192	8192	254	
76319.484	1	1	0	0	100.278	48.7776	143.234	46.0838	52.4241	76.642	136.651	94.4724	26514.1	26140.7	25730.6	25614.3	25275.8	25093.5	24760.6	24045.4	30.797	330.902	289.431	147.718	193.393	212.811	157.479	311.142	8192	-8191	8192	8192	254	
76319.531	1	1	0	0	216.881	56.262	41.0513	87.9012	105.092	11.9274	36.1067	74.3439	23688.1	23140.4	22589.9	22313.4	21818.5	21473.2	20831.6	20798.6	307.372	198.088	124.128	115.071	301.174	33.112	168.990	256.678	8192	-8191	8192	8192	254	
76319.578	1	1	0	0	33.1244	103.678	12.1143	107.161	35.4592	60.8155	51.3769	72.1004	20890.7	20643.8	20741	20573.6	20338.5	19922.9	19619.1	19294.7	296.476	234.802	295.447	75.597	301.439	245.148	290.653	207.217	8192	-8191	8192	8192	254	
76319.578	1	1	0	0	13.2694	32.3807	9.9447	79.78	121.293	91.5462	130.758	67.6253	18947.3	18583.9	18336.6	17956.8	17783	17598	17463.4	17424.7	144.728	159.519	112.476	27.427	304.505	74.414	8.598	278.751	8192	-8191	8192	8192	254	
76319.625	1	1	0	0	8.93255	34.2854	52.298	76.2662	130.11	41.7704	156.016	212.771	17509.7	17841.7	18335.2	18906.9	19679.8	20292.4	21076.5	21768.5	115.991	125.001	339.848	29.177	92.002	95.525	50.413	139.241	8192	-8191	8192	8192	254	
76319.672	1	1	0	65536	16.5231	66.064	82.7134	34.0121	22.6937	78.2325	173.189	53.1363	22316.3	22972.4	23901.1	24620.3	25344.6	26149.7	26984.7	27924.1	295.095	252.291	72.817	203.698	314.175	202.608	87.364	191.478	8192	-8191	8192	8192	254	
76319.719	1	1	0	65536	190.272	141.586	74.087	9.26287	102.604	111.015	40.2087	43.6405	28752.1	29673.4	30269.8	31060.1	31785.6	32182.5	32545.7	32658.3	77.353	256.681	1.129	94.933	166.120	309.644	64.270	55.631	8192	-8191	8192	8192	254	
76319.789	1	1	0	65536	16.7407	11.7259	1.31731	0	0	0	0	0	32752.4	32757.6	32766.3	32767	32767	32767	32767	32767	148.719	337.789	135.000	180.000	180.000	180.000	180.000	180.000	8192	-8191	8192	8192	254	
76319.844	1	1	0	65536	0	0	0	0	0	0	0	0	32767	32767	32767	32767	32767	32767	32767	32767	180.000	180.000	180.000	180.000	180.000	180.000	180.000	180.000	8192	-8191	8192	8192	254	
76319.891	1	1	0	65536	0	0	0	0	0	0	0	0	32767	32767	32767	32767	32767	32767	32767	32767	180.000	180.000	180.000	180.000	180.000	180.000	180.000	180.000	8192	-8191	8192	8192	254	
76319.938	1	1	0	65536	0	0	0	0	0	0	0	0	32767	32767	32767	32767	32767	32767	32767	32767	180.000	180.000	180.000	180.000	180.000	180.000	180.000	180.000	8192	-8191	8192	8192	254	
76319.984	1	1	0	65536	0	0	0	0	0	0	2.34081	31.689	32767	32767	32767	32767	32767	32767	32765	32724.9	180.000	180.000	180.000	180.000	180.000	180.000	63.243	264.886	8192	-8191	8192	8192	254	
76320.031	1	1	0	65536	32.2406	77.3901	181.697	16.2079	47.2227	70.8326	30.5138	47.9169	32576.4	31947.3	30954.4	29861.4	28710.1	27684.3	26557.6	25630.7	316.547	9.639	145.838	96.213	289.976	349.938	341.503	40.963	8192	-8191	8192	8192	254	
76320.102	1	1	0	0	63.1284	55.8571	52.1467	18.0303	46.5866	93.3958	33.2714	58.6031	24731.2	23900.5	22833	10973.1	10878.1	10864.4	10710.4	10617.8	303.477	2.502	314.277	342.658	8.748	359.290	199.101	136.025	8192	-8191	8192	8192	254	
76320.148	1	1	0	0	78.7421	96.4498	62.5401	48.1763	55.1244	49.5517	46.9313	60.1912	10458.7	10316.9	10038.9	9899.07	9674.16	9516.79	9315.23	9263.79	261.012	256.712	97.155	165.426	208.150	358.609	59.036	300.981	8192	-8191	8192	8192	254	
76320.203	1	1	0	0	41.4444	45.578	46.2684	47.6785	36.802	54.3748	75.7568	41.4832	9120.97	9031.36	8994.07	8849.14	8780.36	8708.11	8713.31	8630.9	4.688	116.446	193.063	71.050	331.611	7.122	279.342	102.442	8192	-8191	8192	8192	254	
76320.250	1	1	0	0	55.8876	74.1909	26.906	56.5182	43.1245	81.1045	68.7057	51.5007	8702.12	8661.82	8758.88	8702.92	8739.19	8649.46	8547.17	8576.84	301.070	98.342	115.543	178.871	5.101	22.064	75.369	71.465	8192	-8191	8192	8192	254	
76320.297	1	1	0	0	30.6587	35.7792	27.6758	6.43469	118.639	21.9125	3.51239	10.8697	8485.36	8487.61	8551.72	8491.26	6155.94	1437.16	567.087	264.322	293.827	246.885	286.434	176.372	292.194	42.310	65.254	8.195	8192	-8191	8192	8192	254	
76320.344	1	1	0	0	11.5286	3.34101	6.19532	11.2608	10.0049	4.40859	11.2369	5.77209	176.702	178.438	183.784	174.178	169.5	168.457	160.317	162.553	176.308	315.907	189.147	186.453	206.181	185.467	84.799	51.494	8192	-8191	8192	8192	254	
76320.344	1	1	0	0	5.72946	5.6047	5.76677	5.92927	5.25783	5.04433	9.44083	3.0945	156.654	154.678	160.596	160.149	152.981	171.322	157.861	157.048	270.046	277.169	227.680	187.484	210.452	186.384	51.867	345.222	8192	-8191	8192	8192	254	
76320.391	1	1	0	0	6.12872	8.84552	4.89273	9.12158	6.62363	3.573	6.17552	6.42461	164.221	163.216	156.817	158.654	154.625	143.673	143.221	140.567	89.600	155.235	225.198	75.306	354.384	25.575	179.641	175.935	8192	-8191	8192	8192	254	
76320.461	1	1	0	0	6.39706	4.10262	8.77836	3.99666	5.25644	8.73013	6.50077	5.2292	139.712	128.072	132.909	132.101	133.865	136.548	136.298	149.101	103.354	232.757	304.470	239.747	92.213	0.817	209.641	116.865	8192	-8191	8192	8192	254	
76320.516	1	1	0	0	11.1128	5.99088	6.9148	7.61202	6.78486	13.79	10.531	16.6402	138.639	135.418	143.221	133.639	148.091	148.168	135.476	170.269	334.392	125.594	120.156	67.867	182.975	191.918	92.838	212.150	8192	-8191	8192	8192	254	
76320.562	1	1	0	0	8.45274	9.58815	21.3348	6.99731	16.1889	20.8744	12.7272	70.103	148.399	160.014	150.212	138.192	172.188	171.553	156.707	282.264	1.622	132.660	348.474	108.837	169.908	188.601	207.324	215.302	8192	-8191	8192	8192	254	
76320.609	1	1	0	0	46.3084	53.9536	102.486	8.70526	188.873	130.159	51.3542	693.39	238.938	263.707	333.942	181.438	463.721	411.212	349.793	1520.62	35.606	219.397	31.446	288.581	208.702	215.092	239.513	213.733	8192	-8191	8192	8192	254	
76320.656	1	1	0	0	724.827	885.724	964.935	8.9026	854.099	426.588	115.01	1228.35	1428.65	1872.93	1916.3	486.707	1738.18	1160.59	707.034	2640.6	36.032	224.598	33.773	325.398	212.579	219.584	215.602	211.203	8192	-8191	8192	8192	254	
76320.703	1	1	0	0	1057.94	1130.95	1006.53	2.36868	843.686	407.108	163.885	1247.1	2065.07	2315.37	2041.74	503.543	1755.97	1145.84	743.13	2698.89	37.684	226.047	34.577	38.791	212.427	214.537	213.962	210.644	8192	-8191	8192	8192	254	
76320.750	1	1	0	0	1097.57	1138.97	1043.45	19.3196	874.001	455.545	145.195	1225.32	2103.76	2348.77	2080.48	527.798	1791.32	1195.2	746.625	2718.63	36.873	224.509	36.231	158.073	211.256	213.214	217.641	213.123	8192	-8191	8192	8192	254	
76320.797	1	1	0	0	1105.34	1186.03	1085.94	5.95022	901.495	434.448	143.082	1296.06	2118.7	2389.98	2115.42	526.529	1808.63	1188.08	748.654	2787.73	38.753	225.169	34.799	177.355	211.207	213.533	213.799	211.646	8192	-8191	8192	8192	254	
76320.875	1	1	0	0	1079.32	1204.82	1068.65	9.0838	927.148	437.178	155.561	1313.63	2168.03	2427.12	2129.1	516.293	1834.43	1206.61	750.135	2807.07	36.826	225.992	35.661	309.248	212.071	216.230	209.328	210.499	8192	-8191	8192	8192	254	
76320.922	1	1	0	0	1115.6	1229.37	1100.63	9.49187	899.801	432.412	128.235	1351.58	2227.64	2482.13	2158.39	519.457	1838.13	1194.78	746.154	2830.5	34.838	224.290	34.558	243.927	209.489	219.814	211.262	211.804	8192	-8191	8192	8192	254	
76320.969	1	1	0	0	1153.13	1186.08	1122.6	10.1511	922.332	414.849	140.427	1341.79	2222.14	2443.46	2172.03	508.115	1836.07	1185.38	741.938	2791.42	37.190	224.597	34.693	101.333	212.909	217.949	222.115	211.209	8192	-8191	8192	8192	254	
76321.016	1	1	0	0	1145.39	1199.18	1101.75	19.8349	942.29	429.204	127	1301.03	2177.96	2368.88	2084.51	452.99	1719.43	1089.08	624.418	2606.66	37.438	226.553	35.095	232.555	210.782	214.740	220.167	211.582	8192	-8191	8192	8192	254	
76321.062	1	1	0	0	1121.4	1108.93	1023.46	6.00026	913.007	408.325	128.299	1290.95	1995.86	2213.33	1888.28	340.255	1621.95	961.644	519.226	2491.85	36.081	224.024	33.712	149.739	212.089	213.896	214.989	212.960	8192	-8191	8192	8192	254	
76321.109	1	1	0	0	1064.64	1105.49	1012.48	2.97505	775.741	389.539	117.269	1119.65	1826.98	2063.28	1763.64	245.88	1343.12	813.673	419.404	2144.24	35.540	227.498	33.450	70.487	213.897	215.013	218.913	212.840	8192	-8191	8192	8192	254	
76321.109	1	1	0	0	969.196	962.975	916.219	2.91469	794.506	370.796	121.986	1125.76	1607	1794.6	1557.92	183.178	1303.1	743.231	371.442	2091.72	36.172	226.635	34.232	73.363	210.493	214.404	215.512	211.236	8192	-8191	8192	8192	254	
76321.156	1	1	0	0	951.801	1008.3	913.812	5.75709	758.735	377.601	111.239	1128.15	1545.14	1756.17	1498.76	143.928	1235.35	718.702	327.524	2083.91	38.489	225.474	34.643	245.814	213.175	215.801	210.066	213.513	8192	-8191	8192	8192	254	
76321.211	1	1	0	0	956.475	979.62	916.264	3.61537	768.355	383.453	121.123	1165	1528.96	1704.66	1497.42	104.942	1203.14	672.226	285.755	2041.26	38.306	225.598	37.476	34.422	210.738	213.704	218.622	210.822	8192	-8191	8192	8192	254	
76321.258	1	1	0	0	949.68	999.806	901.831	4.51442	762.999	386.311	125.358	1166.69	1448.77	1670.46	1432.19	72.1058	1181.02	637.534	259.312	2031.43	35.944	225.327	34.908	134.690	211.811	214.798	223.688	212.366	8192	-8191	8192	8192	254	
76321.328	1	1	0	0	953.824	1001.93	907.798	1.72031	745.54	382.489	122.759	1094.56	1451.68	1656.64	1415.08	62.4808	1132.01	634.01	249.226	1960.85	37.686	226.299	35.560	57.534	210.774	217.194	219.833	211.629	8192	-8191	8192	8192	254	
76321.375	1	1	0	0	919.402	991.029	894.94	2.76253	753.96	371.894	118.044	1152.12	1425.38	1654.99	1413.18	53.7596	1133.01	630.505	246.812	2005.7	37.705	225.775	35.414	192.401	210.634	216.405	221.435	211.805	8192	-8191	8192	8192	254	
76321.422	1	1	0	0	937.452	950.742	923.592	4.60118	783.785	373.277	124.516	1151.62	1437.33	1631.54	1407.22	52.399	1153.31	630.351	247.005	2013.49	37.087	226.188	35.372	197.412	211.149	216.337	216.930	211.756	8192	-8191	8192	8192	254	
76321.469	1	1	0	0	951.698	983.645	889.039	4.88396	749.503	360.971	118.32	1143.83	1443.9	1631.94	1395.47	52.1587	1123.46	618.26	246.726	1963.92	37.053	225.999	36.766	173.927	212.557	214.954	216.355	210.802	8192	-8191	8192	8192	254	
76321.523	1	1	0	0	951.838	974.111	878.176	1.98053	776.72	354.346	113.914	1123.9	1440.46	1637.52	1387.31	53.7548	1156.21	611.736	241.168	1986.81	34.746	225.609	34.736	328.531	211.699	217.949	216.840	210.617	8192	-8191	8192	8192	254	
76321.570	1	1	0	0	941.774	966.083	889.968	2.77074	789.109	379.847	120.427	1113.9	1424.3	1621.24	1390.63	52.5144	1155.9	630.534	248.543	1943.21	36.452	225.580	35.597	343.234	209.415	213.978	214.968	211.409	8192	-8191	8192	8192	254	
76321.617	1	1	0	0	965.617	951.142	906.021	5.59838	781.852	386.848	119.222	1100.03	1446.14	1624.76	1409.55	46.9135	1152.22	635.62	248.014	1974.67	38.282	225.105	35.417	58.123	211.154	213.129	219.207	210.335	8192	-8191	8192	8192	254	
76321.664	1	1	0	0	928.484	990.996	910.314	4.71262	758.363	376.148	117.383	1088.19	1422.05	1655.01	1405.49	50.4471	1134.42	622.135	230.255	1965.24	36.607	224.851	34.002	296.382	211.717	215.234	223.877	212.353	8192	-8191	8192	8192	254	
76321.734	1	1	0	0	927.532	1027.16	892.674	6.56744	730.403	374.293	107.892	1124.52	1413.21	1653	1392.39	46.2452	1126.39	619.163	235.399	1987.74	37.529	226.300	35.370	267.654	213.320	215.226	217.459	212.071	8192	-8191	8192	8192	254	
76321.781	1	1	0	0	933.691	1000.59	914.728	4.00273	739.126	374.473	118.758	1106.03	1419.38	1631.14	1408.65	47.1683	1129.68	636.245	240.438	1964.53	38.237	225.980	36.329	237.858	209.858	215.006	220.100	211.794	8192	-8191	8192	8192	254	
76321.828	1	1	0	0	921.05	997.187	912.142	3.87881	745.7	365.387	112.407	1103.61	1401.33	1637.38	1401.4	46.0481	1137.65	609.264	234.976	1948.54	36.760	225.590	35.599	238.048	210.593	213.558	211.796	211.241	8192	-8191	8192	8192	254	
76321.883	1	1	0	0	969.348	1010.81	919.985	1.57634	766.77	363.759	111.614	1098.23	1431.7	1638.27	1397.35	44.0096	1137.52	616.788	231.317	1943.92	37.492	226.358	34.970	172.559	212.031	214.298	215.393	212.871	8192	-8191	8192	8192	254	
76321.883	1	1	0	0	957.402	965.027	889.217	3.07167	751.976	373.503	117.585	1140.29	1425.71	1623.36	1378.22	45.75	1119.96	610.947	232.966	1993.95	35.617	224.033	35.378	340.543	211.540	213.326	225.392	212.775	8192	-8191	8192	8192	254	
76321.930	1	1	0	0	976.096	996.282	883.488	1.45439	775.508	345.65	113.843	1091.6	1437.61	1646.83	1375.79	45.0385	1154.77	609.846	242.817	1956.05	36.759	226.614	34.874	310.280	211.954	216.048	212.489	211.089	8192	-8191	8192	8192	254	
76322.000	1	1	0	0	936.428	1020.3	908.393	2.87099	739.047	365.064	122.043	1139.91	1400.62	1644	1406.92	43.9375	1139.06	608.779	239.197	1978.86	37.700	225.196	35.406	289.885	210.419	213.083	214.917	210.983	8192	-8191	8192	8192	254	
76322.047	1	1	0	0	953.483	977.153	905.688	4.06919	762.138	351.428	124.574	1141.24	1431.36	1619.4	1407.62	48.024	1129.81	622.591	257.702	1982.03	36.852	224.899	34.308	309.617	210.317	216.514	214.934	211.934	8192	-8191	8192	8192	254	
76322.094	1	1	0	0	931.225	959.654	867.098	6.16906	782.65	362.266	102.224	1108.47	1428.79	1643.45	1397.65	51.7115	1152.5	619.284	242.543	1970.07	36.621	225.111	34.694	13.380	209.647	213.868	222.047	212.884	8192	-8191	8192	8192	254	
76322.148	1	1	0	0	943.035	1010.14	880.907	5.33088	771.519	387.989	120.324	1142.59	1423.92	1630.91	1388.69	55.2981	1154.64	622.264	256.091	2004.14	36.441	224.621	33.342	148.314	211.609	217.429	226.396	213.711	8192	-8191	8192	8192	254	
76322.195	1	1	0	0	955.422	957.233	855.894	4.73077	758.999	368.69	130.837	1116.88	1439.82	1629.58	1391.45	70.6538	1170.54	644.111	268.173	1994.34	37.880	226.423	35.686	352.974	211.879	217.451	219.778	212.843	8192	-8191	8192	8192	254	
76322.242	1	1	0	0	930.624	964.805	913.228	2.78161	751.545	354.085	114.297	1138.64	1451.38	1626.94	1439.61	76.5481	1169.43	652.712	268.947	2001.74	38.189	225.490	34.817	195.301	211.290	216.110	221.545	211.796	8192	-8191	8192	8192	254	
76322.289	1	1	0	0	958.155	1008.7	853.85	4.43203	787.023	364.792	117.051	1118.43	1463.35	1674.62	1401.19	81	1191.6	650.072	278.404	2006.71	37.368	224.101	35.427	258.840	213.601	216.024	218.893	212.882	8192	-8191	8192	8192	254	
76322.336	1	1	0	0	928.311	970.618	871.917	5.52176	786.66	362.632	108.917	1106.82	1460.98	1644.53	1417.11	82.8221	1187.88	654.514	281.029	1994.81	37.570	225.977	35.762	21.390	212.489	214.358	212.538	212.946	8192	-8191	8192	8192	254	
76322.406	1	1	0	0	931.013	996.198	914.265	3.10764	789.206	351.779	106.809	1106.79	1455.32	1670.05	1442.46	85.4135	1181.75	654.125	269.212	2010.92	38.074	226.144	33.465	288.779	213.803	213.826	221.644	210.170	8192	-8191	8192	8192	254	
76322.453	1	1	0	0	931.397	1012.69	890.104	5.32167	735.409	367.055	118.692	1145.48	1453.33	1660.19	1419.05	81.2452	1166.09	644.048	279.538	2024.48	37.012	226.214	34.714	219.922	211.277	215.609	216.108	210.730	8192	-8191	8192	8192	254	
76322.508	1	1	0	0	917.797	1005.89	876.548	0.786369	779.914	360.977	115.784	1109.08	1436.46	1663.83	1421.06	83.8173	1191.75	644.495	277.649	1982.39	35.448	223.546	34.399	74.531	210.205	215.831	211.672	211.154	8192	-8191	8192	8192	254	
76322.555	1	1	0	0	974.13	965.035	908.812	6.89607	724.078	360.181	110.783	1112.37	1473.01	1639.17	1431.57	80.3462	1147.25	655.596	279.159	2013.52	38.412	225.288	36.328	235.533	210.759	219.162	224.401	212.062	8192	-8191	8192	8192	254	
76322.602	1	1	0	0	931.721	975.662	911.123	4.06043	775.927	375.678	119.965	1101.93	1445.85	1654.29	1441.88	80.774	1180.93	662.856	272.308	2002.39	37.890	226.406	34.612	105.694	211.440	214.981	219.486	212.007	8192	-8191	8192	8192	254	
76322.648	1	1	0	0	912.089	1004.67	894.797	3.65575	748.98	384.171	110.018	1077.06	1429.02	1678.62	1429.79	80.2404	1168.86	666.12	275.856	1984.21	38.176	225.736	33.920	12.148	211.642	214.066	220.081	210.287	8192	-8191	8192	8192	254	
76322.648	1	1	0	0	942.645	992.561	884.469	8.14388	757.087	384.572	120.207	1154.59	1451.85	1662.08	1409.52	81.5192	1162.98	659.341	275.466	2014.42	35.920	225.442	35.198	332.395	212.841	214.266	209.631	212.537	8192	-8191	8192	8192	254	
76322.695	1	1	0	0	945.978	988.36	887.999	6.33765	750.728	367.158	114.444	1145.54	1465.19	1648.09	1420.67	81.4808	1181.03	642.385	279.861	2024.28	36.594	224.814	37.721	161.073	211.820	215.275	219.201	213.350	8192	-8191	8192	8192	254	
76322.766	1	1	0	0	952.273	987.107	892.893	5.90971	770.457	382.249	117.484	1134.68	1458.8	1688.05	1422.42	89.6971	1171.13	668.938	282.284	2005.03	36.396	223.939	35.456	336.842	212.050	213.160	220.328	211.226	8192	-8191	8192	8192	254	
76322.812	1	1	0	0	948.855	1021.68	863.726	3.21426	784.838	341.216	126.846	1102.27	1462.99	1683.58	1406.5	79.7212	1188.72	645.812	282.889	1988.27	36.614	225.436	34.588	115.335	211.472	216.882	219.919	212.449	8192	-8191	8192	8192	254	
76322.867	1	1	0	0	982.33	960.562	919.521	6.84612	771.391	355.301	110.215	1088.69	1496.35	1645.57	1427.79	84.7067	1172.76	648.731	271.851	1992.33	36.529	226.297	35.179	350.827	210.715	216.610	218.074	211.990	8192	-8191	8192	8192	254	
76322.914	1	1	0	0	900.455	999.005	899.569	9.0247	749.317	352.146	127.408	1106.61	1429.38	1659.21	1434.3	85.7308	1175.67	642.639	279.365	2016.23	37.057	228.471	36.710	107.671	213.305	216.260	220.379	212.462	8192	-8191	8192	8192	254	
76322.961	1	1	0	0	907.886	1013.93	927.798	6.67055	734.579	362.595	108.838	1096.89	1424.92	1673.54	1454.34	80.1058	1178.57	652.587	266.577	1972.8	35.919	225.787	35.611	239.574	212.071	217.158	219.714	210.912	8192	-8191	8192	8192	254	
76323.008	1	1	0	0	947.325	995.854	857.423	15.2183	769.563	373.683	118.242	1130.54	1463.65	1657.09	1410.32	97.8125	1185.95	673.837	275.048	2048.36	36.900	225.221	33.669	323.118	210.775	216.307	225.013	210.136	8192	-8191	8192	8192	254	
76323.055	1	1	3	0	942.112	981.546	877.12	0.978424	770.538	359.924	123.307	1119.73	1460.72	1669.86	1418.94	85.1442	1171.38	639.236	282.514	2019.71	37.402	225.651	36.811	55.250	212.134	213.592	223.478	210.159	8192	-8191	8192	8192	254	
76323.102	1	1	0	0	929.903	963.066	863.321	5.15658	772.669	356.538	118.686	1160.82	1443.3	1664	1405.11	82.476	1189.57	648.524	280.231	2029.75	37.616	225.423	36.314	69.849	212.586	215.332	218.092	211.261	8192	-8191	8192	8192	254	
76323.148	1	1	0	0	908.849	979.373	879.57	6.66258	730.417	390.388	115.865	1116.53	1440.26	1657.9	1407.31	81.2788	1148.93	662.663	289.909	1989.36	37.342	225.022	34.647	160.852	212.948	215.504	217.958	211.810	8192	-8191	8192	8192	254	
76323.203	1	1	0	0	974.172	1006.03	920.435	5.87429	768.054	369.902	108.46	1160.58	1493.15	1682.52	1444.76	91.8558	1163.05	659.798	275.457	2025.32	36.051	227.101	33.800	286.544	211.726	215.276	217.868	212.376	8192	-8191	8192	8192	254	
76323.273	1	1	0	0	972.93	965.388	897.758	3.18753	752.409	374.01	128.775	1134.94	1476.56	1645.53	1424.94	89.2788	1159.63	647.293	279.072	1998.52	36.876	226.333	33.786	350.135	211.763	216.735	218.075	214.226	8192	-8191	8192	8192	254	
76323.320	1	1	0	0	966.4	998.561	889.973	1.42833	766.913	347.351	106.497	1099.64	1470.65	1660.22	1439.56	81.9087	1181.48	667.212	272.668	1977.74	35.582	225.683	35.860	89.195	210.903	215.891	220.645	211.606	8192	-8191	8192	8192	254	
76323.367	1	1	0	0	936.315	974.109	930.363	3.64686	753.606	374.767	120.103	1091.99	1472.17	1642.39	1449.29	84.2548	1155.5	656.808	270.654	1987.27	36.290	225.925	36.481	97.322	211.156	214.888	220.654	214.312	8192	-8191	8192	8192	254	
76323.414	1	1	0	0	950.838	989.007	885.04	3.99424	784.843	368.673	124.486	1122.88	1470.83	1666.2	1421.25	93.7308	1191.64	671.005	276.587	2011.89	38.288	226.837	35.536	201.871	209.452	213.307	214.246	211.917	8192	-8191	8192	8192	254	
76323.414	1	1	0	0	940.889	949.246	893.238	0.367509	758.223	386.244	129.807	1111.74	1462.23	1650.19	1426.33	81.7692	1182.91	660.476	285.582	2001.7	38.396	224.500	34.441	202.760	211.259	214.218	219.163	211.180	8192	-8191	8192	8192	254	
76323.469	1	1	0	0	938.342	1020.24	859.67	7.7916	776.61	407.234	112.862	1156.27	1445.87	1695.61	1424.81	87.0337	1182.22	677.793	287.572	2032.92	36.144	224.163	34.939	232.699	211.746	211.933	218.881	211.606	8192	-8191	8192	8192	254	
76323.516	1	1	0	0	946.619	988.21	906.809	5.41913	746.804	363.661	99.4449	1124.75	1456.81	1659.76	1439.99	86.9856	1171.92	656.587	278.24	2015.63	36.799	226.088	34.062	198.572	212.148	213.796	213.899	211.884	8192	-8191	8192	8192	254	
76323.562	1	1	0	0	971.166	977.635	897.208	5.16893	778.938	366.15	111.486	1110.87	1472.06	1651.2	1434.88	90.1827	1199.88	659.76	281.538	2012.16	38.350	226.765	34.444	33.849	211.681	215.145	211.114	213.731	8192	-8191	8192	8192	254	
76323.633	1	1	0	0	935.321	976.499	895.18	4.73003	769.965	372.034	124.22	1134.93	1454.16	1670.44	1440.18	89.101	1184.68	663.577	284.471	2037.58	37.439	224.654	36.450	202.607	213.294	213.272	225.050	213.152	8192	-8191	8192	8192	254	
76323.680	1	1	0	0	928.424	989.747	867.851	9.89483	762.475	366.533	117.045	1132.78	1458.71	1692.52	1413.55	90.875	1176.6	664.904	291.212	2010.77	36.899	225.430	37.732	285.725	211.236	213.237	211.813	211.389	8192	-8191	8192	8192	254	
76323.727	1	1	0	0	962.649	980.999	861.154	4.35013	762.445	358.507	119.791	1123.06	1491.44	1651.6	1401.76	87.5817	1173.99	651.356	287.452	2010.44	36.382	224.312	34.343	45.350	212.909	215.733	215.531	210.769	8192	-8191	8192	8192	254	
76323.773	1	1	0	0	961.586	984.209	918.304	6.49793	766.665	380.739	122.616	1135.18	1478.65	1667.2	1458.92	82.9808	1187.86	672.139	275.832	2016.88	37.536	226.202	35.904	272.616	211.631	217.096	220.179	212.842	8192	-8191	8192	8192	254	
76323.828	1	1	0	0	959.564	1001.44	886.772	4.92141	720.906	358.349	127.112	1114.24	1458.24	1682.18	1435.17	87.3221	1156.91	649.168	280.49	2012.64	35.372	226.057	36.870	283.464	212.249	214.931	217.689	212.726	8192	-8191	8192	8192	254	
76323.875	1	1	0	0	973.452	948.937	922.242	1.56622	745.933	361.186	115.773	1084.94	1484.2	1667.23	1445.9	85.6346	1160.95	657.606	281.37	2010.09	36.832	225.548	32.159	332.401	213.457	216.072	224.283	212.398	8192	-8191	8192	8192	254	
76323.922	1	1	0	0	915.688	977.909	937.025	5.11692	762.521	363.192	114.55	1142.14	1464.68	1668.25	1458.2	84.9615	1168.84	653.611	283.591	2029.11	36.727	224.222	35.154	136.264	212.402	216.490	213.344	212.518	8192	-8191	8192	8192	254	
76323.969	1	1	0	0	927.139	1005.45	885.791	2.52723	768.366	366.269	104.547	1136.08	1452.48	1700.72	1442.94	91.2404	1197.79	640.947	274.75	1996.94	37.465	223.515	35.468	318.864	210.315	214.972	217.568	210.193	8192	-8191	8192	8192	254	
76324.039	1	1	0	0	959.496	962.468	905.88	4.58787	739.964	358.17	119.281	1125.97	1476.54	1644.8	1426.95	86.4183	1163.7	656.072	292.663	2012.1	37.744	224.660	35.212	273.432	210.358	215.672	212.054	212.967	8192	-8191	8192	8192	254	
76324.086	1	1	0	0	952.164	982.691	885.573	2.90795	798.081	380.486	111.687	1106.16	1482.18	1667.13	1438.03	89.2404	1196.34	660.918	276.784	1986.9	36.870	226.159	34.709	26.180	212.198	214.017	216.433	209.971	8192	-8191	8192	8192	254	
76324.133	1	1	0	0	945.005	968.882	868.693	7.64577	754.733	381.084	124.058	1117.04	1467.48	1664.44	1421.49	92.7981	1189.3	671.827	286.312	2014.5	37.597	224.368	36.218	55.241	211.453	216.103	220.543	211.815	8192	-8191	8192	8192	254	
76324.188	1	1	0	0	963.257	987.68	871.118	6.36613	762.396	389.31	113.173	1114.18	1481.32	1671.8	1431.96	88.8942	1176.77	665.846	282.418	1996.37	37.154	224.631	34.577	32.053	212.076	215.132	219.500	209.439	8192	-8191	8192	8192	254	
76324.188	1	1	0	0	963.321	994.675	919.83	5.35144	758.075	379.191	126.396	1117.02	1476.15	1663.97	1437.56	89.0577	1193.66	667.49	286.221	2034.47	36.383	224.737	34.702	329.231	211.814	213.268	213.877	212.617	8192	-8191	8192	8192	254	
76324.234	1	1	0	0	935.816	988.418	850.974	3.71006	792.557	376.458	117.484	1112.29	1471.85	1661.4	1431.64	85.3606	1210.99	664.524	276.428	2000.1	36.667	226.006	36.171	279.309	210.118	216.056	219.968	211.578	8192	-8191	8192	8192	254	
76324.305	1	1	0	0	941.457	1009.03	874.547	2.46669	738.726	360.505	105.335	1108.58	1454.53	1680.89	1410.95	90.9856	1165.38	655.784	278.192	1992.24	36.496	226.212	33.904	16.729	209.836	216.496	215.651	211.820	8192	-8191	8192	8192	254	
76324.352	1	1	0	0	940.733	1016.24	877.547	1.07764	772.274	351.562	106.639	1124.81	1464.95	1682.87	1404.24	88.2308	1187.7	650.173	274.49	2020.34	38.802	226.478	34.690	103.690	211.627	217.124	218.112	212.595	8192	-8191	8192	8192	254	
76324.398	1	1	0	0	957.742	1002.04	902.968	8.09139	779.42	365.609	125.194	1125.83	1477.22	1674.55	1430.62	89	1189.05	662.188	290.423	2008.8	38.653	226.588	35.113	254.030	211.085	216.163	216.250	211.984	8192	-8191	8192	8192	254	
76324.445	1	1	0	0	956.971	971.48	901.087	1.8897	752.815	372.41	108.49	1125.55	1447.74	1650	1437.45	87.1683	1176.92	671.529	278.341	2006.33	36.894	224.570	34.963	157.322	212.051	216.498	215.221	212.396	8192	-8191	8192	8192	254	
76324.492	1	1	0	0	932.91	1005.55	914.647	7.25774	736.626	374.015	111.711	1105.51	1447.1	1677.64	1441.31	85.5288	1168.17	647.447	277.736	2003.25	37.346	225.549	36.002	223.772	209.737	214.801	223.382	212.964	8192	-8191	8192	8192	254	
76324.547	1	1	0	0	949.725	978.709	865.983	3.33226	749.797	366.568	105.396	1139.88	1455.68	1654.85	1428.59	87.1154	1187.77	659.389	285.923	2021.61	36.810	226.291	36.626	211.423	212.991	214.818	212.461	212.799	8192	-8191	8192	8192	254	
76324.594	1	1	0	0	933.792	982.896	898.745	6.0142	740.039	345.148	104.931	1096.2	1474.66	1669.39	1434.98	82.3702	1158.32	659.274	273.447	1977.37	39.010	224.591	34.052	305.244	212.470	214.082	223.996	212.627	8192	-8191	8192	8192	254	
76324.641	1	1	0	0	948.172	993.76	883.362	2.78934	776.487	381.798	118.381	1092.61	1460	1665.66	1435.68	86.0385	1188.27	662.803	272.697	2003.69	36.060	225.287	35.970	307.400	212.399	215.135	219.055	211.609	8192	-8191	8192	8192	254	
76324.711	1	1	0	0	942.539	995.621	895.436	2.88507	745.426	381.033	130.877	1101.77	1462.94	1669.17	1437.37	87.9087	1174.71	666.673	284.918	2004.91	37.641	226.169	35.198	175.980	212.758	217.050	217.654	211.137	8192	-8191	8192	8192	254	
76324.758	1	1	0	0	945.484	996.421	858.394	3.45997	786.463	345.031	125.138	1104.07	1478.32	1674.7	1418.82	87.6971	1184.22	650.62	290.827	1987	37.340	228.046	33.392	99.987	210.646	214.797	212.626	211.020	8192	-8191	8192	8192	254	
76324.812	1	1	0	0	946.891	976.066	874.674	4.33158	744.755	378.182	99.4724	1091.11	1464.09	1677.69	1420.08	82.851	1169.02	675.856	265.745	1998.15	38.368	225.906	35.372	254.585	211.054	216.203	218.116	212.747	8192	-8191	8192	8192	254	
76324.859	1	1	0	0	938.459	986.714	892.266	7.48254	718.166	388.198	119.035	1148.08	1456.58	1662.8	1438.69	87.1154	1176.07	663.173	276.75	2028.16	35.574	223.346	34.764	153.702	212.290	215.737	220.151	212.646	8192	-8191	8192	8192	254	
76324.906	1	1	0	0	937.34	980.018	907.61	1.70971	762.262	371.332	122.42	1097.15	1446.75	1675.52	1433.2	84.3317	1168.16	670.332	274.341	2017.42	37.686	225.145	36.084	311.539	210.026	213.184	216.571	212.505	8192	-8191	8192	8192	254	
76324.953	1	1	0	0	975.565	991.978	916.417	4.98747	783.633	360.347	109.689	1132.14	1482.67	1650.95	1448.34	87.5577	1194.93	646.404	281.524	2017.13	37.541	225.119	34.506	247.918	212.878	215.053	222.436	211.175	8192	-8191	8192	8192	254	
76324.953	1	1	0	0	971.441	973.634	899.743	4.50506	735.122	378.278	124.448	1120.64	1468.39	1669.96	1433.63	86.6923	1166.72	663.788	296.625	1998.25	36.792	225.283	35.416	43.088	212.268	214.491	216.761	211.952	8192	-8191	8192	8192	254	
76325.000	1	1	0	0	959.742	1021.29	890.216	0.306466	769.561	370.857	118.201	1087.26	1467.26	1675.06	1428.12	87.3558	1180.14	649.76	283.236	1984.09	37.163	224.605	35.905	277.690	212.479	217.183	215.255	211.059	8192	-8191	8192	8192	254	
76325.070	1	1	0	0	932.114	969.858	885.994	3.53921	757.14	350.954	121.501	1126.06	1452.87	1645.65	1413.32	89.2548	1164.57	645.115	285.332	2014.77	37.272	227.222	36.007	274.590	211.864	216.024	215.010	213.710	8192	-8191	8192	8192	254	
76325.117	1	1	0	0	979.248	976.566	879.629	9.95261	750.922	358.935	118.283	1113.13	1473.97	1661.55	1417.18	85.4904	1182.83	657.255	291.192	1998.39	37.345	225.641	34.785	27.428	212.196	216.756	217.369	211.744	8192	-8191	8192	8192	254	
76325.172	1	1	0	0	987.261	987.237	890.322	4.68844	779.888	383.936	108.193	1117.71	1489.78	1670.73	1418.24	82.6971	1203.17	675.394	282.913	2017.01	37.169	227.609	35.106	311.648	210.277	216.949	218.529	211.592	8192	-8191	8192	8192	254	
76325.219	1	1	0	0	953.37	995.139	875.585	3.13347	753.482	381.872	120.755	1133.44	1468.04	1664.8	1419.79	86.0721	1186.27	670.067	270.341	2010.52	37.195	226.999	34.017	191.363	212.605	214.822	221.045	210.974	8192	-8191	8192	8192	254	
76325.266	1	1	0	0	925.934	968.759	884.16	3.676	762.569	352.76	105.007	1136.73	1456.74	1657.02	1428.38	92.2596	1170.81	657.793	268.058	2043.71	36.386	226.874	34.523	200.334	212.620	214.526	210.463	211.831	8192	-8191	8192	8192	254	
76325.312	1	1	0	0	958.707	985.705	886.954	3.99558	750.811	368.645	111.463	1099.81	1480.08	1675.59	1423.41	82.1394	1178.61	656.87	273.332	2000.9	35.850	226.436	34.808	172.261	210.493	212.552	225.422	213.171	8192	-8191	8192	8192	254	
76325.359	1	1	0	0	970.503	1017.7	912.164	7.02616	760.069	368.767	127.033	1120.91	1479.25	1690.15	1441.77	85.3798	1190.72	656.812	281.37	2006.65	37.586	223.978	33.879	40.143	211.330	215.638	219.330	212.729	8192	-8191	8192	8192	254	
76325.406	1	1	0	0	971.871	974.313	901.74	1.9129	774.4	366.933	109.374	1128.57	1490.07	1673.53	1437.24	90.9375	1193.78	640.438	281.139	1998.9	36.311	226.467	34.008	345.731	212.020	216.871	218.142	210.996	8192	-8191	8192	8192	254	
76325.453	1	1	0	0	969.791	992.995	874.52	7.30501	802.011	363.021	118.213	1098.97	1470.87	1685.57	1416.38	87.9519	1206.26	643.038	281.596	2011.76	36.607	225.726	34.881	160.358	211.773	212.947	220.818	212.265	8192	-8191	8192	8192	254	
76325.508	1	1	0	0	948.001	1008.95	899.871	4.4931	735.812	370.277	116.565	1115.24	1453.45	1661.67	1421.57	82.4327	1150.83	651.106	286.178	2011.41	37.674	224.529	35.211	223.331	211.782	214.849	220.372	211.016	8192	-8191	8192	8192	254	
76325.578	1	1	0	0	926.207	983.5	888.169	2.01243	757.745	364.32	112.889	1095.76	1468.37	1645.7	1424.46	83.2692	1178.28	666.591	278.12	1984.95	36.486	226.107	38.126	164.106	211.958	215.203	217.526	211.895	8192	-8191	8192	8192	254	
76325.625	1	1	0	0	913.39	984.711	890.854	2.66759	758.409	374.319	104.413	1101.34	1439.19	1663.1	1428.83	86.4423	1182.83	672.005	275.462	1991.36	37.595	225.716	35.261	105.197	211.327	216.964	221.036	211.744	8192	-8191	8192	8192	254	
76325.672	1	1	0	0	958.724	986.305	869.337	1.36294	817.004	348.663	114.224	1081.23	1478.66	1640.58	1415.5	87.1683	1203.26	664.673	279.413	1984.29	36.907	224.965	36.404	179.936	212.341	216.362	220.206	209.942	8192	-8191	8192	8192	254	
76325.719	1	1	0	0	943.663	989.306	891.913	6.35463	769.385	367.308	119.703	1117.92	1463.31	1647.62	1421.87	91.2548	1166.99	655.755	282.942	2012.67	36.061	225.951	35.028	240.109	213.388	216.271	211.988	213.548	8192	-8191	8192	8192	254	
76325.719	1	1	0	0	967.943	993.544	907.194	4.29728	746.343	384.582	109.373	1121	1471.98	1667.96	1435.3	79.3077	1185.58	671.673	281.678	2006.51	37.410	225.157	34.949	174.863	212.261	214.973	220.157	211.820	8192	-8191	8192	8192	254	
76325.766	1	1	0	0	933.617	971.649	922.326	3.20319	773.878	374.28	120.348	1132.11	1450.36	1639.61	1449.94	89.25	1201.49	655.947	286.971	2030.07	37.255	222.620	35.850	1.180	210.929	214.494	215.755	211.474	8192	-8191	8192	8192	254	
76325.820	1	1	0	0	954.4	994.127	867.367	5.43768	743.962	374.31	107.144	1099.12	1460.85	1688.43	1420.67	86.5481	1165.32	656.995	277.178	1999.66	35.723	227.037	35.247	267.535	212.715	217.438	219.590	209.782	8192	-8191	8192	8192	254	
76325.867	1	1	0	0	873.76	980.443	924.187	4.28805	738.504	382.495	113.097	1134.69	1424.83	1677.75	1450.91	91.4135	1181.65	664.495	276.043	2013.73	36.367	227.269	34.557	270.057	211.869	215.032	215.293	211.929	8192	-8191	8192	8192	254	
76325.938	1	1	0	0	975.501	1003.56	878.504	8.62914	773.248	361.449	123.853	1131.32	1459.6	1691.02	1451.23	90.9712	1187.63	658.981	286.577	2014.86	38.049	224.450	36.313	329.606	212.155	216.287	214.769	210.865	8192	-8191	8192	8192	254	
76325.984	1	1	0	0	885.665	953.725	891.581	2.56232	772.913	367.8	115.822	1134.17	1436.21	1665.54	1437.2	90.6154	1178.28	652.788	271.601	2021.85	36.482	223.788	35.196	227.276	212.307	213.874	220.300	213.756	8192	-8191	8192	8192	254	
76326.031	1	1	0	0	960.921	988.987	860.427	2.55823	773.434	360.915	124.73	1131.68	1476.42	1670.25	1419.61	82.2067	1189	651.832	290.793	2019.97	36.504	226.690	36.060	221.789	212.077	215.075	220.006	211.131	8192	-8191	8192	8192	254	
76326.078	1	1	0	0	942.143	976.817	917.401	10.9401	774.136	370.962	117.899	1139.13	1473.44	1665.96	1448.31	90.1587	1176.45	661.538	282.418	2028.55	36.177	224.938	34.485	266.801	212.659	216.788	215.696	213.053	8192	-8191	8192	8192	254	
76326.125	1	1	0	0	943.041	977.996	858.833	6.89832	790.343	382.656	125.437	1118.27	1474.26	1656.28	1424.86	92.8942	1194.35	657.202	281.841	2021.81	39.414	225.266	33.966	303.237	211.996	213.424	219.317	213.509	8192	-8191	8192	8192	254	
76326.180	1	1	0	0	928.957	969.881	916.243	5.14679	750.942	387.655	120.638	1132.25	1457.53	1650.38	1442.7	84.0625	1174.79	667.865	275.01	2035.41	37.435	224.498	36.099	147.056	212.285	215.262	220.125	211.462	8192	-8191	8192	8192	254	
76326.250	1	1	4	0	949.771	975.765	870.195	4.10748	767.76	373.381	110.82	1105	1470.24	1667.31	1420.18	84.3942	1176.6	655.207	294.74	2019.15	38.465	225.859	35.551	94.792	211.553	215.875	221.536	213.023	8192	-8191	8192	8192	254	
76326.297	1	1	0	0	955.345	995.356	876.619	2.86474	783.356	386.587	111.903	1113.69	1461.97	1692.33	1431.02	89.8365	1203.03	668.712	288.947	2010.59	37.919	225.318	36.513	154.327	213.094	215.532	216.807	212.037	8192	-8191	8192	8192	254	
76326.344	1	1	0	0	966.987	962.303	905.462	7.90101	795.541	353.345	106.008	1100.08	1479.38	1645	1440.77	89.226	1207.43	655.245	282.245	1981.8	37.785	224.046	35.413	250.460	212.461	215.257	217.074	210.701	8192	-8191	8192	8192	254	
76326.391	1	1	0	0	933.037	938.905	887.303	6.27343	733.463	374.369	104.729	1130.09	1460.25	1635.93	1439.83	96.9375	1159.25	658.606	278.697	2018.57	38.031	226.538	35.200	230.771	211.329	215.242	222.392	212.980	8192	-8191	8192	8192	254	
76326.438	1	1	0	0	936.748	983.382	901.083	7.35288	758.274	378.601	110.191	1174.08	1476.27	1684.78	1419.77	92.0817	1175.71	659.062	285.356	2060.1	36.840	226.238	35.268	212.176	211.385	215.021	219.021	212.672	8192	-8191	8192	8192	254	
76326.492	1	1	0	0	895.442	988.778	896.404	6.11769	777.517	357.711	122.892	1143.11	1457.61	1676.31	1444.82	94.1779	1208.93	653.745	296.12	2048.85	37.631	224.586	35.498	128.004	212.047	213.638	214.099	212.043	8192	-8191	8192	8192	254	
76326.484	1	1	0	0	914.518	991.438	875.535	11.3757	768.562	364.293	113.71	1158.97	1463.46	1679.62	1439.44	94.1442	1189.89	670.264	284.274	2055.68	36.986	224.742	35.853	285.805	211.272	215.410	219.147	212.024	8192	-8191	8192	8192	254	
76326.539	1	1	0	0	949.413	982.95	897.648	3.01346	730.264	378.362	125.516	1112.88	1485.03	1680.71	1440.45	99.4375	1171.6	670.168	292.486	1989.15	38.425	226.930	35.805	15.221	210.955	215.073	214.072	212.991	8192	-8191	8192	8192	254	
76326.609	1	1	0	0	936.694	992.001	926.327	5.99551	754.73	378.884	100.175	1142.65	1476.12	1676	1466.81	98.4663	1196.37	682.308	292.245	2070.92	37.285	225.183	32.278	244.074	211.657	214.869	219.929	211.321	8192	-8191	8192	8192	254	
76326.656	1	1	0	0	921.017	972.267	896.491	6.02985	778.37	370.674	115.001	1099.85	1468.29	1668.81	1472.36	104.481	1208.62	683.447	301.837	2023.47	37.294	226.152	35.189	1.710	212.202	210.334	220.431	212.631	8192	-8191	8192	8192	254	
76326.703	1	1	0	0	950.198	1002.82	886.25	3.51329	765.295	367.901	108.565	1120.85	1487.26	1709.15	1475.43	104.606	1195.57	677.188	294.462	2027.03	37.554	224.018	34.942	258.132	212.513	213.514	219.286	210.899	8192	-8191	8192	8192	254	
76326.750	1	1	0	0	926.087	971.924	890.096	8.69053	737.498	358.081	113.118	1163.23	1478.29	1664.3	1445.19	111.803	1189.71	672	291.24	2040.5	37.477	225.017	35.708	180.197	211.751	214.777	223.181	211.330	8192	-8191	8192	8192	254	
76326.805	1	1	0	0	938.068	974.718	889.297	11.5219	743.267	360.518	116.822	1154.84	1473.39	1668.19	1429.12	91.8798	1185.97	658.793	279.861	2038.89	38.104	225.540	35.333	29.654	211.622	219.096	223.632	212.012	8192	-8191	8192	8192	254	
76326.852	1	1	0	0	973.019	999.009	894.742	4.2482	786.365	375.5	118.671	1117.31	1480.78	1687.61	1449.21	94.9135	1205.76	673.014	280.957	1996.31	37.846	223.774	34.820	298.571	212.689	214.167	220.613	213.156	8192	-8191	8192	8192	254	
76326.898	1	1	0	0	957.973	981.703	897.765	6.03741	756.204	358.181	106.665	1125.1	1470.59	1660.25	1433.43	97.4375	1177.65	652.668	279.038	2028.62	38.149	225.131	35.159	171.420	211.312	212.397	216.424	212.073	8192	-8191	8192	8192	254	
76326.945	1	1	0	0	976.686	978.147	905.603	4.32625	796.45	352.465	117.06	1107.87	1488.68	1659.41	1447.66	90.875	1212.85	668.221	289.101	2005.22	36.584	225.290	34.255	21.039	212.931	213.180	217.361	211.441	8192	-8191	8192	8192	254	
76326.992	1	1	0	0	960.398	987.451	897.305	4.22601	765.105	359.631	113.212	1104.18	1480.56	1676.36	1446.16	95.6154	1188.7	661.837	286.712	2013.07	38.644	223.351	35.160	264.716	211.760	214.486	221.614	211.153	8192	-8191	8192	8192	254	
76327.039	1	1	0	0	940.247	944.38	892.206	6.58883	763.578	379.42	116.995	1142.36	1474.67	1644.71	1446.91	99.7548	1182.53	670.659	294.668	2050.86	37.907	224.496	38.239	332.511	213.124	215.523	223.270	211.936	8192	-8191	8192	8192	254	
76327.109	1	1	0	0	946.364	1011.9	875.539	8.86492	759.05	372.786	115.235	1138.65	1478.42	1708.39	1420.38	102.962	1173.82	663.303	290.038	2025.04	36.831	226.550	36.346	25.304	211.118	215.658	221.758	211.542	8192	-8191	8192	8192	254	
76327.156	1	1	0	0	922.195	983.772	931.853	2.99499	760.565	343.171	108.54	1141.01	1460.6	1659.22	1464.67	93.9038	1190.33	648.688	290.572	2029.72	38.085	227.630	34.621	219.386	210.508	215.841	214.576	211.459	8192	-8191	8192	8192	254	
76327.211	1	1	0	0	946.482	1012.24	905.555	9.49921	781.929	379.987	111.766	1120.1	1482.66	1694.26	1445.96	95.4952	1191.75	681.928	281.077	2015.33	36.053	224.164	35.048	175.416	212.038	216.065	223.635	211.513	8192	-8191	8192	8192	254	
76327.258	1	1	0	0	967.062	1013.71	923.302	5.96512	779.468	336.084	119.831	1106.59	1492.72	1699.05	1453.14	99.7163	1212.41	659.024	287.889	2025.09	37.135	224.378	34.350	229.390	212.246	215.383	214.020	212.147	8192	-8191	8192	8192	254	
76327.258	1	1	0	0	939.248	998.55	891.488	3.34579	787.93	369.688	126.558	1122.06	1479.95	1690.87	1463.93	100.812	1224.25	692.812	290.904	2022.62	35.771	226.422	34.099	59.473	210.456	214.227	220.164	211.443	8192	-8191	8192	8192	254	
76327.305	1	1	0	0	959.66	1002.05	870.638	8.69923	788.182	356.345	129.801	1163.68	1508.1	1705.64	1451.36	118.673	1234.72	687.933	321.678	2042.97	37.379	225.054	36.811	310.308	211.964	217.087	213.485	212.028	8192	-8191	8192	8192	254	
76327.375	1	1	0	0	946.816	944.62	902.468	6.09297	751.4	379.331	117.033	1137.07	1512.2	1682.59	1503.6	128.856	1228.74	709.163	333.476	2082.38	38.256	225.667	35.392	278.028	212.191	213.154	219.959	213.458	8192	-8191	8192	8192	254	
76327.422	1	1	0	0	950.304	1002.29	888.715	9.96008	754.8	351.67	119.688	1099.88	1521.17	1740.06	1484.49	147.188	1248.17	701.899	344.356	2086.78	36.350	224.968	34.762	241.382	210.886	215.513	221.009	210.145	8192	-8191	8192	8192	254	
76327.469	1	1	0	0	953.167	977.61	912.888	6.69106	767.571	334.104	117.298	1104.01	1546.8	1756.91	1524.12	158.591	1265.74	731.337	370.481	2118.86	38.190	224.552	35.151	42.790	213.081	221.649	225.731	210.954	8192	-8191	8192	8192	254	
76327.523	1	1	0	0	951.009	961.999	882.112	3.39627	806.086	340.026	111.908	1109.24	1574.3	1745.85	1522.95	187.683	1297.62	759.269	388.76	2105.69	38.218	225.912	35.095	344.793	212.634	218.735	222.899	211.100	8192	-8191	8192	8192	254	
76327.570	1	1	0	0	946.691	990.56	853.823	3.59825	774.48	371.643	115.522	1111.49	1584.35	1788.9	1524.11	202.106	1293.25	773.178	393.99	2112.43	37.902	227.757	37.459	131.505	213.380	217.387	220.742	212.862	8192	-8191	8192	8192	254	
76327.617	1	1	0	0	948.417	998.786	869.997	7.09508	797.415	372.207	116.158	1138.87	1571.95	1793.43	1557.95	209.082	1327.78	808.038	412.255	2160.36	35.609	224.869	36.640	209.339	211.126	215.223	216.189	211.550	8192	-8191	8192	8192	254	
76327.664	1	1	0	0	962.282	999.514	903.555	1.33016	756.748	351.387	113.786	1127.28	1610.49	1803.48	1572.01	219.673	1297.94	786.462	407.337	2131.23	38.622	227.068	35.978	338.221	210.562	213.321	216.355	211.754	8192	-8191	8192	8192	254	
76327.711	1	1	0	0	956.193	1017.93	912.773	16.5574	777.17	362.52	111.973	1168.17	1608.5	1824.15	1566.84	223.639	1345.54	789.611	425.293	2163.54	35.459	226.348	35.061	71.536	211.351	213.893	214.520	210.163	8192	-8191	8192	8192	254	
76327.781	1	1	0	0	953.294	1031.01	900.193	10.3832	760.431	367.124	105.56	1124.17	1614.64	1839.57	1583.04	224.639	1327.79	795.798	436.163	2155.91	37.968	223.619	36.271	300.299	213.119	214.902	212.857	211.351	8192	-8191	8192	8192	254	
76327.836	1	1	0	0	939.406	936.409	888.046	9.46797	740.327	359.74	111.959	1153.74	1613.19	1773.98	1563.11	237.692	1315	813.832	419.24	2166.29	37.903	224.552	35.374	156.350	212.367	214.041	217.418	210.547	8192	-8191	8192	8192	254	
76327.883	1	1	0	0	942.393	985.142	887.903	3.74906	775.297	355.572	108.653	1114.55	1592.24	1794	1548.11	220.938	1326.71	803.361	419.423	2157	35.734	225.684	34.372	111.591	213.302	212.862	207.692	211.051	8192	-8191	8192	8192	254	
76327.930	1	1	0	0	963.914	1030.76	903.969	12.4709	722.024	345.963	96.6043	1014.56	1635.67	1867.37	1602.62	230.183	1290.56	780.938	421.899	1955.74	38.146	224.772	34.978	90.149	214.149	214.151	218.990	210.535	8192	-8191	8192	8192	254	
76327.977	1	1	0	0	834.346	847.689	763.066	16.1906	705.572	342.047	119.202	1055.43	1446.96	1612.59	1440.13	238.029	1270.35	772.519	433.534	2001.92	39.037	225.758	35.031	337.144	211.045	214.475	219.036	211.960	8192	-8191	8192	8192	254	
76328.023	1	1	0	0	772.199	678.27	543.466	6.46364	282.991	103.415	14.4693	113.387	1382.81	1362.1	1058	221.486	605.88	351.798	222.096	423.053	35.210	223.881	36.731	229.525	212.782	218.532	207.165	217.913	8192	-8191	8192	8192	254	
76328.023	1	1	0	0	58.7523	22.9833	16.9239	8.72221	10.0961	12.2781	8.7436	2.96499	245.841	218.577	202.846	176.418	187.894	175.606	174.952	176.423	44.290	227.906	7.996	279.568	141.941	232.461	287.272	263.731	8192	-8191	8192	8192	254	
76328.070	1	1	0	0	6.46336	3.93576	4.63499	10.1069	292.123	128.54	69.2625	47.7803	185.971	212.63	427.13	1720.29	10827.2	19387.3	14150.7	13505.9	19.604	46.835	172.830	338.393	115.126	328.022	245.692	237.375	8192	-8191	8192	8192	254	
76328.148	1	1	0	0	61.9145	11.7348	75.2666	79.7417	84.0766	87.6793	86.4591	38.1313	12996.8	13608.4	14136.2	14557.4	14687.6	15060.6	15506.8	15893.2	10.434	62.718	205.586	146.485	66.389	72.490	266.204	181.001	8192	-8191	8192	8192	254	
76328.195	1	1	0	0	59.3174	81.2982	65.5555	62.5128	29.2631	71.6382	93.9699	33.4394	16424.8	17144.6	17667.6	18151.5	18664.5	19024.6	19191.3	19351.8	289.050	15.698	341.898	162.199	76.367	339.688	262.506	134.363	8192	-8191	8192	8192	254	
76328.242	1	1	0	0	84.643	32.4438	85.1945	23.6027	146.873	29.4181	99.7561	56.402	19475.6	19299.8	19157.5	18740.1	18093.6	17508.5	17165.3	17640.9	337.605	248.333	145.515	125.833	78.065	326.524	311.448	250.959	8192	-8191	8192	8192	254	
76328.289	1	1	0	0	37.604	45.0031	45.6524	72.2058	107.709	38.6657	119.675	41.8688	19067.6	22467.5	25796.5	26511.8	28101.5	27457.6	26765.7	26529.7	175.173	63.650	114.723	292.922	35.637	170.627	239.596	329.362	8192	-8191	8192	8192	254	
76328.336	1	1	0	0	60.0917	65.0465	189.211	225.857	151.996	113.128	111.624	146.011	26457.1	25973	26142.1	27250.8	28021.2	27615.2	27043.9	26547.3	139.670	355.135	147.817	91.680	325.765	42.070	292.124	251.921	8192	-8191	8192	8192	254	
76328.383	1	1	0	0	155.932	67.2103	37.9002	15.6243	61.1381	137.818	11.7586	109.595	26357.2	26481.3	26859.8	27198.7	27418.8	27232.1	27195.8	26617.7	238.981	190.557	67.835	51.587	289.011	254.282	351.493	347.998	8192	-8191	8192	8192	254	
76328.430	1	1	0	0	79.4073	42.7383	161.906	105.722	117.86	42.3834	142.353	60.9717	26724	27215.2	27945.8	27749.3	27300.8	26641.4	26109.8	26060.1	353.848	201.869	150.546	125.631	138.407	203.322	282.297	56.684	8192	-8191	8192	8192	254	
76328.477	1	1	0	0	53.2749	123.346	103.334	113.168	162.436	55.5932	63.8966	108.398	26493.8	25622.6	24351.9	26923.1	27083.8	24774.7	23834.4	22893.6	320.789	262.846	77.695	44.038	32.628	347.341	56.502	329.721	8192	-8191	8192	8192	254	
76328.531	1	1	0	0	156.048	144.973	117.987	74.6162	202.52	56.292	14.5227	35.8109	22312.3	20911.9	18384.7	16643	11198.4	3223.98	2087.88	2057.94	158.028	345.294	33.989	325.243	295.469	267.979	81.699	297.682	8192	-8191	8192	8192	254	
76328.578	1	1	0	0	60.7605	19.0895	54.3805	37.3268	85.5645	55.4162	43.9166	17.8195	2277.53	2479.9	2753.6	5747.62	5662.28	2534.26	1040.65	618.644	195.436	135.730	134.949	61.637	5.974	266.228	347.307	310.342	8192	-8191	8192	8192	254	
76328.648	1	1	0	0	11.2955	18.5921	19.5024	8.88976	5.89222	5.66294	13.3467	9.18947	457.38	414.635	408.466	408.615	408.514	400.269	388.106	385.245	216.752	23.636	177.418	226.498	178.073	337.750	12.086	131.602	8192	-8191	8192	8192	254	
76328.695	1	1	0	0	18.819	2.4102	16.1797	7.09954	6.6609	7.93143	7.65965	5.80057	392.014	390.183	395.798	398.144	386.394	390.471	402.995	401.663	51.864	266.402	205.570	225.734	176.347	128.482	18.089	223.972	8192	-8191	8192	8192	254	
76328.742	1	1	0	0	15.6513	8.87779	6.27884	11.7498	13.724	11.3516	12.7364	17.1255	402.308	389.668	390.591	389.327	395.913	389.659	393.51	389.447	129.294	305.035	162.222	232.521	67.465	93.753	36.566	345.350	8192	-8191	8192	8192	254	
76328.789	1	1	0	0	3.66369	6.40513	1.24014	18.1613	7.60971	6.01018	10.5213	3.20658	389.332	400.144	392.154	394.716	407.457	393.361	399.183	392.091	322.681	344.825	96.703	353.275	104.086	210.104	112.900	318.727	8192	-8191	8192	8192	254	
76328.797	1	1	0	0	9.94715	11.4938	22.4132	7.85018	12.1667	4.47464	3.75761	11.3548	384.457	370.726	351.827	318.745	322.13	296.111	290.611	279.649	301.352	287.639	120.540	346.501	223.369	258.665	150.189	59.571	8192	-8191	8192	8192	254	
76328.844	1	1	0	0	6.49954	8.74234	5.34424	7.80845	12.1734	10.925	15.4436	6.86979	263.269	242.788	215.731	213.986	201.293	206.615	202.861	195.615	265.740	303.177	173.834	278.477	107.918	130.535	197.603	242.400	8192	-8191	8192	8192	254	
76328.914	1	1	0	0	4.9561	9.2876	5.27842	4.2311	17.9744	10.0476	5.79438	3.90157	197.303	184.529	196.572	185.928	189.019	194.562	187.356	197.543	300.462	159.643	348.036	333.996	316.601	25.816	181.519	343.159	8192	-8191	8192	8192	254	
76328.961	1	1	0	0	8.05259	0.694531	15.4113	0.82536	9.70989	4.62175	20.9629	106.086	202.389	193.385	191.433	199.188	211.832	221.957	228.582	439.846	314.515	187.510	94.031	123.128	161.815	209.341	266.369	212.498	8192	-8191	8192	8192	254	
76329.008	1	1	0	0	121.611	194.435	212.689	11.084	206.883	113.906	40.8269	320.867	489.221	653.188	724.12	402.308	719.745	558.875	448.928	963.351	48.396	229.004	45.592	329.049	218.169	215.701	207.224	216.104	8192	-8191	8192	8192	254	
76329.055	1	1	0	0	261.783	271.045	257.712	16.3068	214.009	120.496	39.2975	351.337	774.899	816.856	761.226	386.764	705.591	542.438	464.986	967.51	43.184	230.478	41.234	221.080	218.999	224.427	214.222	217.828	8192	-8191	8192	8192	254	
76329.102	1	1	0	0	271.077	270.197	248.503	9.97629	218.094	121.423	28.5584	332.417	772.957	818.394	763.793	394.091	685.615	555.308	456.63	960.005	37.180	234.435	40.703	99.217	216.518	226.574	246.197	219.079	8192	-8191	8192	8192	254	
76329.156	1	1	0	0	278.216	265.341	227.586	6.07534	221.695	103.093	38.2971	353.388	783.423	831.577	756.154	373.865	693.726	531.764	432.923	956.981	47.576	231.980	39.045	151.668	214.881	222.166	226.080	217.546	8192	-8191	8192	8192	254	
76329.203	1	1	0	0	256.721	277.193	256.835	10.6459	234.888	101.837	24.5634	329.697	739.745	791.495	740.303	347.034	675.245	502.019	383.966	925.793	41.233	230.305	34.989	307.026	215.849	224.094	235.901	210.778	8192	-8191	8192	8192	254	
76329.250	1	1	0	0	284.333	276.573	249.085	8.77632	207.72	113.825	30.2399	331.173	748.486	787.024	709.62	320.764	633.438	483.74	364.726	880.678	44.381	228.575	40.669	230.635	215.044	219.871	247.544	216.815	8192	-8191	8192	8192	254	
76329.320	1	1	0	0	293.107	265.828	254.6	0.863391	237.32	108.759	38.0736	344.34	678.457	718.837	653.678	278.524	592.029	446.091	327.303	844.524	42.983	231.956	41.773	322.660	216.614	218.737	227.360	219.396	8192	-8191	8192	8192	254	
76329.367	1	1	0	0	254.792	256.987	249.091	3.63676	231.24	109.536	26.1395	333.513	656.885	675.043	632.841	251.471	569.034	402.962	284.26	796.236	39.255	235.774	42.248	116.627	214.706	222.562	242.952	217.171	8192	-8191	8192	8192	254	
76329.414	1	1	0	0	253.857	268.186	228.611	7.33108	198.837	100.604	37.1057	305.707	605.37	630.264	566.841	207.173	486.606	332	236.096	685.476	40.368	231.155	37.413	229.260	216.065	219.389	215.183	219.649	8192	-8191	8192	8192	254	
76329.469	1	1	0	0	229.893	254.455	222.211	13.6908	202.525	95.088	35.0346	284.731	507.173	532.596	486.596	141.74	418.558	276.471	175.274	618.111	42.795	229.362	38.246	60.495	212.761	226.870	221.709	216.714	8192	-8191	8192	8192	254	
76329.516	1	1	0	0	235.765	230.32	211.784	16.0245	198.004	77.3604	33.0539	303.195	450.803	485.558	418.404	108.413	380.163	256.837	152.111	608.163	39.895	232.973	38.642	232.413	218.041	222.414	200.418	218.407	8192	-8191	8192	8192	254	
76329.562	1	1	0	0	242.783	245.97	206.849	7.78999	189.423	91.5868	30.912	285.979	434.375	480.591	405.144	103.072	392.019	251.192	154.029	599.822	41.655	229.674	40.720	149.321	220.768	214.676	236.184	218.265	8192	-8191	8192	8192	254	
76329.562	1	1	0	0	238.876	231.93	208.94	5.3746	195.415	90.8073	25.776	288.032	437.183	482.433	414.12	97.0144	373.106	240.466	152.082	599.447	42.448	231.850	43.361	290.761	219.153	217.831	239.794	219.555	8192	-8191	8192	8192	254	
76329.609	1	1	0	0	230.391	226.033	211.988	2.82478	197.065	109.866	30.9376	277.16	420.745	471.476	416.899	104.62	376.337	253.082	154.861	595.423	41.726	229.961	40.256	4.664	220.046	215.594	219.180	217.155	8192	-8191	8192	8192	254	
76329.656	1	1	0	0	221.198	231.313	212.403	5.15936	190.343	91.3978	45.5224	301.635	436.385	473.736	425.188	120.832	372.308	268.077	166.644	606.231	40.366	232.715	37.005	301.219	213.969	216.328	229.105	216.041	8192	-8191	8192	8192	254	
76329.703	1	1	0	0	215.752	245.017	206.937	4.07285	173.559	95.9166	31.249	301.753	441.312	494.298	427.433	108.538	384.49	263.423	159.423	614.928	44.802	229.074	42.242	332.890	215.499	222.031	231.166	215.923	8192	-8191	8192	8192	254	
76329.773	1	1	0	0	207.132	200.03	198.837	6.28537	190.591	96.6304	34.9932	308.376	440.072	478.178	423.404	115.957	394.659	266.976	166.024	619.697	45.789	227.660	41.994	308.237	215.990	218.063	214.105	216.028	8192	-8191	8192	8192	254	
76329.828	1	1	0	0	229.975	233.496	215.247	7.86403	184.24	93.3163	21.0046	292.628	450.649	495.014	451.337	123	397.197	278.269	180.668	639.077	41.619	234.610	43.069	266.237	214.562	218.392	208.099	215.848	8192	-8191	8192	8192	254	
76329.875	1	1	0	0	220.269	251.534	219.618	4.68069	183.768	89.7644	37.3429	303.537	445.418	512.115	479.659	160.072	440.149	340.312	255.216	726.356	42.498	230.746	41.969	98.706	218.610	218.959	227.584	215.396	8192	-8191	8192	8192	254	
76329.922	1	1	0	0	236.19	243.572	227.584	8.54798	194.331	80.2293	25.8305	285.426	544.471	568.37	512.865	170.572	449.885	309.423	196.149	645.784	42.476	229.763	38.438	268.220	213.488	224.966	219.847	218.137	8192	-8191	8192	8192	254	
76329.969	1	1	0	0	233.019	232.395	204.788	5.14729	188.434	102.24	37.5534	275.271	486.332	511.668	440.784	146.365	406.077	284.683	175.788	621.462	41.334	233.328	42.107	37.501	212.400	229.543	226.945	215.095	8192	-8191	8192	8192	254	
76330.016	1	1	0	0	217.017	232.767	221.517	4.21177	188.249	104.484	22.0106	282.552	441.519	493.707	444.188	115.615	397.144	270.423	166.409	617.865	38.515	230.852	42.014	201.899	218.482	222.567	208.727	213.235	8192	-8191	8192	8192	254	
76330.062	1	1	0	0	222.635	240.289	223.553	7.23833	188.697	103.258	28.5277	287.559	444.332	497.558	429.096	104.115	381.601	256.062	151.644	624.716	41.741	236.805	39.699	16.916	217.487	221.196	202.349	218.487	8192	-8191	8192	8192	254	
76330.109	1	1	0	0	235.839	244.819	213.806	2.03815	181.102	86.465	32.9277	294.472	441.659	485.385	435.332	112.644	389.202	254.611	162.226	597.582	39.718	226.137	42.867	342.638	215.330	219.659	223.373	217.456	8192	-8191	8192	8192	254	
76330.188	1	1	0	0	244.427	245.266	214.161	5.46412	186.228	95.3576	42.9178	281.201	452.913	490.034	435.043	116.476	384.418	274.543	180.899	607.928	42.843	230.761	41.341	184.361	220.850	214.837	210.739	215.228	8192	-8191	8192	8192	254	
76330.234	1	1	0	0	213.414	230.884	216.47	2.91289	191.078	82.5918	30.3502	278.975	445.404	493.245	454.918	120.043	395.207	271.909	178.053	612.986	45.397	233.169	41.313	109.512	213.463	222.272	224.358	216.844	8192	-8191	8192	8192	254	
76330.281	1	1	0	0	214.613	223.767	185.095	11.3457	204.279	85.7444	28.991	279.36	455.904	479.438	434.716	125.966	403.043	263.135	173.591	622.139	41.604	235.206	41.572	345.589	218.923	225.746	219.291	216.989	8192	-8191	8192	8192	254	
76330.328	1	1	0	0	223.497	239.033	209.162	7.73124	182.782	91.4609	35.1671	295.398	451.995	483.611	444.356	115.913	401.447	269.875	177.264	638.611	42.313	232.218	39.677	83.716	215.644	220.933	228.178	218.091	8192	-8191	8192	8192	254	
76330.328	1	1	0	0	240.531	232.014	223.895	4.96771	204.648	93.3061	42.9155	292.681	445.99	476.216	431.587	118.212	402.572	276.611	171.216	619.721	39.775	227.722	37.600	271.789	217.253	222.780	225.548	214.685	8192	-8191	8192	8192	254	
76330.375	1	1	0	0	222.169	251.424	202.372	6.45711	197.116	86.7256	31.106	279.208	452.048	505.466	423.875	119.75	377.308	249.471	165.663	614.894	44.320	232.634	41.393	88.641	219.317	225.321	233.125	212.680	8192	-8191	8192	8192	254	
76330.422	1	1	0	0	212.844	225.422	215.034	6.2977	192.6	94.7178	40.9885	291.538	439.562	480.851	436.986	117.779	372.981	253.438	162.428	609.212	39.988	229.967	45.780	309.673	215.110	213.276	228.463	216.100	8192	-8191	8192	8192	254	
76330.477	1	1	0	0	223.674	221.111	208.88	5.54756	188.329	99.9739	26.3091	302.56	446.543	480.947	428.274	107.861	378.144	253.913	160.668	600.466	40.439	232.149	43.521	95.414	218.047	221.060	229.784	218.268	8192	-8191	8192	8192	254	
76330.547	1	1	0	0	224.383	225.861	208.755	8.35542	193.537	101.782	32.6083	275.432	426.966	485.072	425.048	109.043	381.154	262.087	154.663	592.822	43.228	230.392	40.400	286.441	217.650	216.864	212.825	217.029	8192	-8191	8192	8192	254	
76330.594	1	1	0	0	237.44	254.639	221.988	8.16759	196.826	85.8022	34.0237	297.056	432.611	470.139	416.736	103.274	379.212	245.957	147.784	611.519	44.029	231.529	41.785	56.175	214.961	222.182	242.566	214.462	8192	-8191	8192	8192	254	
76330.641	1	1	0	0	230.965	237.485	209.223	2.71175	183.769	99.8809	33.992	301.987	433.827	464.394	425.043	100.577	367.351	248.976	144.779	609.721	40.649	231.708	41.378	186.100	218.105	227.919	224.265	214.490	8192	-8191	8192	8192	254	
76330.688	1	1	0	0	232.261	230.3	214.439	1.25098	196.587	93.6311	28.5954	303.962	426.365	458.409	412.486	99.0962	371.75	245.308	143.736	603.029	44.581	234.281	39.228	244.577	217.831	215.604	208.203	218.547	8192	-8191	8192	8192	254	
76330.734	1	1	0	0	213.638	229.521	221.344	4.53145	185.525	94.4207	36.713	315.016	414.885	468.779	414.827	96.2115	365.13	246.62	146.466	611.101	38.246	229.248	38.555	260.058	218.362	221.673	245.962	218.013	8192	-8191	8192	8192	254	
76330.781	1	1	0	0	221.388	233.552	208.633	1.94141	181.424	88.4299	35.6574	302.485	425.928	462.495	403.784	87.2404	361.192	232.928	142.49	598.365	46.101	230.478	39.257	34.890	215.150	224.360	228.538	217.912	8192	-8191	8192	8192	254	
76330.859	1	1	0	0	220.136	216.368	206.993	1.77181	193.587	88.3235	30.051	288.793	412.125	452.548	401.654	85.0433	373.144	237.587	139.389	584.812	39.448	229.877	42.708	89.664	211.131	219.885	222.798	215.302	8192	-8191	8192	8192	254	
76330.906	1	1	0	0	234.074	219.018	200.694	9.16231	198.913	88.9538	28.3053	271.304	415.274	447.668	405.788	92.4952	360.5	234.808	131.678	577.995	47.746	230.955	38.649	284.620	215.913	230.276	231.659	216.827	8192	-8191	8192	8192	254	
76330.953	1	1	0	0	233.749	232.903	205.268	2.2868	170.053	92.4208	32.2769	274.89	419.202	456.938	404.26	90.4567	360.966	226.606	140.784	584.808	43.681	231.383	41.360	162.330	214.876	231.257	212.142	218.330	8192	-8191	8192	8192	254	
76331.000	1	1	0	0	224.095	231.436	213.886	4.1099	201.046	90.3534	26.8957	289.939	415.24	465.548	415.726	96.3894	363.312	239.837	145.904	583.087	41.201	228.180	41.830	141.590	216.900	224.374	217.305	217.255	8192	-8191	8192	8192	254	
76331.047	1	1	0	0	221.093	234.071	201.54	0.899981	185.74	90.2563	26.0796	280.443	417.966	460.418	397.832	91.6058	360.712	238.784	145.476	598.462	40.794	231.694	40.380	134.975	219.752	219.536	225.608	215.551	8192	-8191	8192	8192	254	
76331.094	1	1	0	0	228.536	229.622	214.381	3.82098	184.805	83.115	32.3028	283.679	429.346	451.51	417.846	88.5192	368.909	239.149	140.356	594.163	42.395	229.810	40.136	248.093	221.219	220.441	226.537	217.794	8192	-8191	8192	8192	254	
76331.094	1	1	0	0	228.329	238.053	198.486	7.93941	204.968	92.6668	27.7008	282.385	432.389	461.466	407.125	89.3942	380.288	236.144	142.154	576.058	42.792	229.160	40.692	91.960	220.702	219.796	217.385	218.330	8192	-8191	8192	8192	254	
76331.148	1	1	0	0	222.813	231.656	199.907	5.72804	195.988	98.2761	21.7961	291.876	421.221	460.769	408.572	94.6346	357.596	233.678	141.591	579.99	41.561	232.321	36.254	9.410	218.157	213.288	218.626	217.193	8192	-8191	8192	8192	254	
76331.195	1	1	5	0	228.571	229.178	205.305	7.67829	198.043	102.064	30.4566	307.563	426.788	464.192	405.673	91.7788	374.774	243.269	142.37	607.923	43.748	233.320	44.285	54.120	217.507	232.928	209.138	214.636	8192	-8191	8192	8192	254	
76331.242	1	1	0	0	224.351	229.604	213.219	2.87301	185.391	93.4876	36.673	270.243	424.226	455.625	405.341	95.2163	360.37	239.091	147.264	579.788	40.296	232.900	40.443	334.840	215.966	223.406	236.727	217.492	8192	-8191	8192	8192	254	
76331.312	1	1	0	0	222.687	236.905	206.694	8.33696	186.524	101.778	31.3832	289.169	420.413	464.163	414.317	94.774	367.904	243.019	152.615	591.341	42.786	230.177	41.116	54.309	216.572	221.041	230.659	217.058	8192	-8191	8192	8192	254	
76331.359	1	1	0	0	211.188	233.3	209.477	4.35933	204.897	96.0208	27.0526	301.294	421.697	473.014	409.928	90.9375	376.495	247.702	147	587.01	42.667	228.996	46.177	229.176	216.173	218.995	222.433	217.280	8192	-8191	8192	8192	254	
76331.406	1	1	0	0	237.611	225.079	214.463	1.86099	194.371	97.7623	43.1683	292.2	429.62	449.139	414.663	95.8462	371.067	247.524	148.375	596.519	43.431	234.993	41.993	260.149	218.019	229.142	217.463	219.879	8192	-8191	8192	8192	254	
76331.453	1	1	0	0	225.724	230.907	203.812	8.24997	205.167	103.239	35.4483	287.831	429.24	467.495	413.601	94.7452	376.365	244.798	144.457	599.851	45.831	227.424	38.234	85.416	214.854	217.119	211.617	215.484	8192	-8191	8192	8192	254	
76331.508	1	1	0	0	241.383	233.757	196.083	3.82164	172.583	95.0785	29.1321	286.885	429.572	469.928	402.755	91.2115	358.038	235.433	145.207	591.712	41.452	233.245	42.173	275.858	219.710	213.825	220.986	220.349	8192	-8191	8192	8192	254	
76331.555	1	1	0	0	222.857	230.816	204.638	2.50808	179.852	92.2064	14.0415	290.589	432.192	452.668	397.788	97.5962	363.769	248.149	145.471	587.562	44.830	230.604	38.404	279.676	219.418	218.899	229.709	216.559	8192	-8191	8192	8192	254	
76331.625	1	1	0	0	217.98	217.545	215.692	5.38428	187.888	95.9973	32.9144	300.245	426.856	455.856	423.659	90.149	370.837	250.865	153.144	599.88	42.743	229.331	40.258	119.182	218.906	221.397	229.782	216.635	8192	-8191	8192	8192	254	
76331.672	1	1	0	0	232.841	234.885	211.114	4.47938	191.918	105.414	32.9497	273.172	439.519	479.736	412.317	98.4375	378.457	249.62	150.851	582.072	41.325	235.931	42.659	251.549	215.918	217.104	230.161	213.916	8192	-8191	8192	8192	254	
76331.719	1	1	0	0	218.759	237.955	211.437	7.05668	178.485	89.5906	31.5401	275.114	410.649	470.245	414.745	99.1298	364.447	238.188	154.668	593.942	41.939	229.396	43.437	308.347	218.565	224.310	238.340	217.602	8192	-8191	8192	8192	254	
76331.766	1	1	0	0	213.895	225.187	218.806	8.31988	189.04	92.3095	26.5983	298.294	422.034	462.562	406	94.9231	368.913	244.635	148.875	600.923	46.389	230.821	36.902	142.393	218.419	215.698	234.449	217.364	8192	-8191	8192	8192	254	
76331.820	1	1	0	0	219.56	233.32	203.938	3.30945	190.059	98.4729	33.4364	310.683	423.736	475.894	426.062	99.2548	375.793	252.505	157	614.88	46.877	228.430	39.464	51.560	216.578	218.251	258.001	217.319	8192	-8191	8192	8192	254	
76331.867	1	1	0	0	210.791	226.875	208.98	8.41759	191.495	90.3671	22.2209	304.835	422.279	478.25	429.572	109.707	379.779	249.346	148.077	616.793	43.608	233.322	37.805	271.836	216.933	219.856	228.559	217.026	8192	-8191	8192	8192	254	
76331.867	1	1	0	0	219.745	229.824	202.479	7.10832	190.462	96.8063	26.3564	300.3	434.74	466.178	419.904	100.442	379.067	245.135	143.716	608.572	44.211	231.460	39.761	62.768	219.704	223.370	213.653	215.519	8192	-8191	8192	8192	254	
76331.914	1	1	0	0	225.911	217.984	216.056	3.59759	182.769	88.2941	30.0297	284.702	430.067	464.106	423.149	98.7981	377.389	256.601	155.159	595.365	45.673	231.823	40.241	329.179	214.768	209.630	224.953	221.175	8192	-8191	8192	8192	254	
76331.984	1	1	0	0	225.421	230.807	209.566	5.4372	190.293	95.1039	35.9345	299.56	430.341	472.197	421.37	107.236	377.938	255.438	163.534	608.918	44.492	232.559	39.251	203.526	217.773	223.730	225.315	220.936	8192	-8191	8192	8192	254	
76332.031	1	1	0	0	218.331	231.522	203.727	4.62418	185.264	95.2666	34.6301	294.745	429.803	477.822	422.615	107.24	370.476	257.438	155.971	589.111	43.729	229.346	35.127	165.511	215.593	221.465	224.215	218.577	8192	-8191	8192	8192	254	
76332.078	1	1	0	0	219.105	222.801	209.483	2.43915	184.46	93.3551	31.0203	295.809	425.245	467.774	421.361	104.365	373.861	248.269	164.216	607.014	45.567	231.508	41.139	24.648	215.998	216.524	230.605	217.012	8192	-8191	8192	8192	254	
76332.133	1	1	0	0	225.289	227.757	210.851	9.85896	189.368	97.8812	30.0336	289.831	435.312	487.981	425.678	103.12	390.688	256.317	162.63	606.245	40.816	228.147	40.905	65.229	219.078	215.951	226.681	215.827	8192	-8191	8192	8192	254	
76332.180	1	1	0	0	213.696	225.552	230.002	4.32217	182.971	92.3579	30.3735	277.347	433.731	479.591	433.091	113.221	376.365	257.264	159.062	605.385	43.196	230.078	42.318	172.737	216.398	219.985	241.820	218.701	8192	-8191	8192	8192	254	
76332.227	1	1	0	0	224.166	229.505	230.655	2.443	184.741	93.9186	32.572	271.738	442.087	480.293	421.707	105.933	373.736	241.293	148.716	607.346	41.856	228.258	44.199	175.948	215.458	214.681	223.333	219.491	8192	-8191	8192	8192	254	
76332.273	1	1	0	0	222.946	227.132	203.361	5.55171	186.269	97.4132	30.6471	285.516	434.428	464.673	418.255	108.043	370.712	252.534	161.375	606.418	42.469	234.572	40.966	13.189	219.155	219.271	222.919	214.224	8192	-8191	8192	8192	254	
76332.320	1	1	0	0	224.681	220.064	197.423	2.18729	211.724	96.9181	27.0165	288.655	431.149	478.418	416.332	111.471	388.341	250.014	159.327	610.149	44.675	232.826	41.822	302.163	215.538	225.557	223.533	217.653	8192	-8191	8192	8192	254	
76332.391	1	1	0	0	234.091	240.169	214.678	7.01636	205.44	95.9217	33.8024	294.614	436.409	480.769	433.245	99.8798	376.514	256.375	157.048	616.5	45.063	230.844	40.042	63.001	213.171	219.932	228.519	215.158	8192	-8191	8192	8192	254	
76332.438	1	1	0	0	204.508	230.338	200.525	0.887768	186.267	85.6764	27.5407	294.235	429.413	479.793	414.505	106.865	392.731	247.317	161.514	614.692	39.944	229.465	41.669	283.856	221.231	220.347	221.690	216.541	8192	-8191	8192	8192	254	
76332.492	1	1	0	0	229.287	226.556	210.677	5.37167	191.487	107.654	32.923	324.074	433.529	462.957	430.957	109.058	374.476	254.216	160.029	610.644	45.028	232.975	40.218	89.545	219.628	216.940	212.914	211.920	8192	-8191	8192	8192	254	
76332.539	1	1	0	0	222.379	230.653	221.237	2.54949	189.06	110.574	37.5763	257.827	422.082	473.144	419.654	109.649	367.135	255.188	160.5	591.101	39.743	232.780	41.256	222.194	213.129	215.607	219.123	218.320	8192	-8191	8192	8192	254	
76332.586	1	1	0	0	230.495	228.273	199.441	1.99064	177.635	101.93	36.7136	299.017	440.88	468.543	405.452	98.8173	373	251.322	154.63	601.351	47.966	230.710	41.537	182.941	216.958	223.567	224.248	219.397	8192	-8191	8192	8192	254	
76332.633	1	1	0	0	228.641	239.353	216.397	3.04603	188.462	102.824	38.5335	294.818	428.058	468.438	420.053	100.428	377.183	256.981	148.043	610.332	45.853	233.373	39.707	154.787	217.893	219.465	217.266	220.183	8192	-8191	8192	8192	254	
76332.633	1	1	0	0	209.069	226.279	224.309	5.95487	191.189	96.7178	28.2278	292.795	424.418	468.894	429.163	104.418	379.654	257.37	159.514	600.341	40.215	230.998	41.657	91.651	219.563	215.018	199.766	219.741	8192	-8191	8192	8192	254	
76332.680	1	1	0	0	230.406	243.024	196.62	7.10422	193.267	102.455	30.3776	298.502	430.192	476.149	404.389	101.207	368.615	253.019	155	603.053	41.397	235.585	42.340	210.426	216.078	216.073	246.329	220.548	8192	-8191	8192	8192	254	
76332.750	1	1	0	0	221.354	227.562	209.126	5.28229	195.442	93.7969	24.1849	281.786	423.683	472.928	405.216	103.154	371.471	246.12	154.255	597.053	41.422	235.441	39.627	344.219	219.292	231.201	214.687	217.468	8192	-8191	8192	8192	254	
76332.797	1	1	0	0	224.501	230.456	206.266	5.80776	195.771	94.0535	28.3065	284.586	420.466	472.043	409.423	97.4856	367.822	243.466	153.644	593.913	44.948	234.220	38.425	185.754	218.875	226.667	222.570	216.588	8192	-8191	8192	8192	254	
76332.852	1	1	0	0	229.536	243.939	222.008	1.26703	186.394	92.778	34.2135	283.91	416.846	469.096	424.438	92.8558	371.13	239.74	144.793	588.745	40.686	231.450	43.098	21.579	218.172	221.420	224.706	220.219	8192	-8191	8192	8192	254	
76332.898	1	1	0	0	238.312	212.478	213.951	2.43461	174.686	97.6089	42.8462	295.287	433.264	452.13	416.168	90.5529	370.615	236.952	150.101	585.423	45.355	229.841	38.050	294.199	213.742	222.978	221.169	216.884	8192	-8191	8192	8192	254	
76332.945	1	1	0	0	208.372	217.945	199.479	13.3831	187.372	93.0064	22.4654	281.891	412.923	457.529	411.322	101.572	368.322	239.726	145.688	597.62	43.035	230.561	39.593	31.416	215.519	215.350	231.067	213.466	8192	-8191	8192	8192	254	
76332.992	1	1	0	0	252.451	209.448	216.854	4.13462	182.149	91.8437	23.2275	273.708	431.442	455.529	416.495	95.9856	364.101	242.255	141.438	584.784	43.686	228.827	37.845	284.183	215.225	217.792	211.958	214.937	8192	-8191	8192	8192	254	
76333.039	1	1	0	0	223.865	227.506	214.623	4.56717	188.05	85.5301	33.2479	278.085	427.668	459.577	409.788	99.3846	366.726	232.125	146.74	594.365	48.002	233.728	38.746	5.082	219.506	215.775	230.986	214.974	8192	-8191	8192	8192	254	
76333.094	1	1	0	0	220.288	237.913	207.991	2.39967	184.555	101.332	25.5585	274.178	413.798	466.288	397.514	88.9519	361.034	241.135	134.341	578.62	43.644	232.625	38.313	143.948	217.492	220.234	224.538	217.167	8192	-8191	8192	8192	254	
76333.141	1	1	0	0	235.039	230.991	209.766	1.78685	173.708	88.109	24.6797	290.165	419.168	467.639	400.817	88.7596	362.019	232.957	133.284	582.255	45.497	231.537	37.865	156.215	216.841	220.880	216.269	217.896	8192	-8191	8192	8192	254	
76333.188	1	1	0	0	223.733	224.555	209.565	7.58062	195.703	98.6611	31.1756	286.534	425.087	448.942	407.803	93.4135	360.952	239.697	140	584.755	44.091	230.965	44.749	325.242	216.915	223.515	233.106	214.985	8192	-8191	8192	8192	254	
76333.258	1	1	0	0	216.495	216.583	199.654	2.94624	199.818	98.7535	35.245	315.843	405.091	453.385	404.745	99.1587	375.245	236.029	142.611	602.63	41.423	227.937	36.500	274.052	212.730	223.469	226.641	219.996	8192	-8191	8192	8192	254	
76333.305	1	1	0	0	215.883	222.752	208.02	5.50086	198.455	97.0516	25.5124	273.092	419.005	453.5	406.404	89.9087	366.678	241.053	141.462	580.053	43.754	236.122	42.661	338.331	216.228	230.416	239.791	218.089	8192	-8191	8192	8192	254	
76333.352	1	1	0	0	229.111	238.135	216.215	4.71516	176.932	100.357	32.5125	297.142	419.019	471.231	405.375	86.6538	363.692	244.793	135.817	597.389	46.302	234.354	40.342	92.739	216.485	223.959	214.311	214.855	8192	-8191	8192	8192	254	
76333.398	1	1	0	0	226.839	235.701	212.676	8.90551	187.682	100.415	30.8293	302.954	416.726	455.798	411.812	89.274	363.947	253.221	139.745	593.173	43.581	228.505	40.681	179.084	220.703	225.261	219.309	216.272	8192	-8191	8192	8192	254	
76333.398	1	1	0	0	229.963	239.936	187.308	3.63857	207.537	90.518	30.8419	295.928	426.697	457.851	403.087	91.0144	371.029	239.394	143.625	602.255	44.907	232.420	42.980	251.028	216.640	219.127	208.361	217.099	8192	-8191	8192	8192	254	
76333.445	1	1	0	0	231.183	233.845	209.693	4.24842	203.441	92.9764	31.2506	288.44	419.231	466.567	414.851	89.3317	365.365	234.639	142.87	598.918	43.685	228.045	42.755	143.345	218.001	220.142	222.704	216.515	8192	-8191	8192	8192	254	
76333.500	1	1	0	0	228.684	230.144	223.115	6.18611	197.613	83.6338	29.2197	290.362	422.452	455.183	415.649	93.9519	361.87	239.606	150.216	590.231	40.452	234.280	37.926	286.587	220.423	225.625	216.630	217.235	8192	-8191	8192	8192	254	
76333.547	1	1	0	0	234.939	216.423	212.887	8.22267	185.761	89.5711	33.9859	287.339	425.154	460.803	412.538	93.3077	354.433	244.082	143.457	597.736	42.981	230.054	45.029	133.034	214.159	224.506	211.457	220.044	8192	-8191	8192	8192	254	
76333.617	1	1	0	0	222.395	239.55	196.083	5.14225	189.033	104.834	30.0124	295.93	413.688	481.337	408.774	94.1394	358.423	246.125	142.822	592.486	41.903	233.076	43.532	106.797	216.717	221.107	229.826	215.231	8192	-8191	8192	8192	254	
76333.664	1	1	0	0	213.134	225.389	205.956	0.959069	194.881	105.587	22.1868	294.537	414.062	454.298	410.673	94.9279	359.274	251.572	145.942	595.519	43.973	230.549	39.767	357.239	212.138	218.924	215.284	218.290	8192	-8191	8192	8192	254	
76333.711	1	1	0	0	226.522	231.727	208.602	3.561	183.212	94.7111	25.3638	283.251	415.115	462.889	407.087	92.8606	371.399	241.755	143.019	579.889	46.158	229.792	40.398	130.612	213.998	220.316	203.852	215.718	8192	-8191	8192	8192	254	
76333.758	1	1	0	0	229.544	241.005	196.901	4.54999	196.55	91.6329	35.697	298.82	415.986	470.457	401.255	96.6202	369.308	233.673	142.356	591.01	41.210	229.476	34.462	57.499	219.567	227.184	214.933	216.107	8192	-8191	8192	8192	254	
76333.812	1	1	0	0	219.894	228.964	208.853	2.96362	186.294	91.9042	25.2313	281.756	430.726	456.452	417.875	95.1635	363.745	236.923	136.548	580.062	44.185	234.229	42.019	196.468	215.780	224.994	227.565	214.249	8192	-8191	8192	8192	254	
76333.859	1	1	0	0	225.362	241.281	222.048	7.79898	219.871	106.813	31.0653	285.407	422.572	473.755	407.159	87.2644	376.707	253.082	135.683	584.149	44.622	230.627	39.172	338.551	214.118	217.952	217.289	213.185	8192	-8191	8192	8192	254	
76333.930	1	1	0	0	228.959	237.004	203.724	3.98013	182.601	98.7881	31.1684	274.201	419.077	464.207	407.582	100.245	368.173	252.606	140.75	590.601	39.101	229.315	43.156	324.191	214.810	219.502	221.075	215.485	8192	-8191	8192	8192	254	
76333.977	1	1	0	0	218.689	232.975	214.003	6.74303	183.559	104.797	35.0268	291.296	415.495	468.851	415.418	90.1154	368.688	244.995	140.856	588.327	45.272	230.338	43.937	131.624	216.637	224.199	233.911	212.904	8192	-8191	8192	8192	254	
76334.023	1	1	0	0	228.806	222.872	223.395	4.92633	192.425	106.237	30.5061	291.957	424.038	455.707	417.038	87.4856	365.851	236.067	141.048	610.438	40.332	233.858	36.533	158.318	218.246	223.624	224.884	215.791	8192	-8191	8192	8192	254	
76334.070	1	1	0	0	222.109	234.448	224.063	4.54871	200.958	96.8702	33.0547	283.076	418.519	457.779	411.51	99	373.173	232.928	145.197	586.101	38.849	234.767	39.841	129.107	214.271	220.380	224.850	217.958	8192	-8191	8192	8192	254	
76334.125	1	1	0	0	231.516	229.192	223.536	8.01861	203.281	83.9152	34.0655	274.556	432.904	455.995	428.221	87.3558	367.447	244.591	144.606	586.399	43.068	229.537	37.349	165.759	217.088	221.929	231.637	216.430	8192	-8191	8192	8192	254	
76334.172	1	1	0	0	220.186	241.841	203.642	6.78517	182.772	94.0221	25.6437	292.077	413.644	470.635	409.913	93.6635	361.663	244.264	143.25	592.135	42.158	231.564	41.813	92.469	220.247	227.072	244.303	217.219	8192	-8191	8192	8192	254	
76334.172	1	1	6	0	217.489	245.716	200.289	7.54325	179.763	90.1315	28.3902	282.56	420.63	472.894	410.202	92.5481	369.837	246.962	143	587.832	44.923	234.455	40.347	269.203	219.556	221.264	226.921	216.354	8192	-8191	8192	8192	254	
76334.219	1	1	0	0	219.909	214.722	209.665	0.45803	194.803	90.2741	35.5805	272.292	412.764	454.928	419.697	93.0192	368.067	238.495	138.154	585.827	44.131	229.038	41.567	171.648	215.146	208.863	217.855	214.155	8192	-8191	8192	8192	254	
76334.289	1	1	0	0	216.928	228.974	201.619	7.71189	183.837	102.954	34.7482	290.937	420.101	446.168	408.351	86.4712	361.649	245.048	134.361	590.774	45.975	228.969	37.521	357.968	215.811	224.248	226.286	217.146	8192	-8191	8192	8192	254	
76334.336	1	1	0	0	221.612	220.321	206.055	0.843774	203.352	98.2886	37.1483	303.652	413.053	451.543	409.38	89.0192	368.409	244.423	137.447	583.51	39.447	230.721	41.116	325.724	214.771	216.685	213.373	219.922	8192	-8191	8192	8192	254	
76334.383	1	1	0	0	231.541	224.234	200.986	2.17195	197.949	94.3066	30.2467	262.562	435.188	452.817	410.062	90.875	364.567	249.654	141.014	583.332	44.850	229.243	36.788	197.492	217.473	219.099	221.561	219.529	8192	-8191	8192	8192	254	
76334.438	1	1	0	0	222.338	222.29	222.245	5.055	187.364	110.415	32.8441	278.226	417.423	462.337	415.293	88.25	366.827	246.462	145.01	581.135	42.617	232.752	44.461	122.575	219.780	219.800	218.683	218.400	8192	-8191	8192	8192	254	
76334.484	1	1	0	0	216.793	235.841	204.303	4.89208	190.067	89.6023	25.1271	296.581	416.178	455.423	412.606	94.9663	371.197	246.034	142.428	608.308	42.137	231.694	39.361	127.273	216.844	220.779	243.337	214.532	8192	-8191	8192	8192	254	
76334.531	1	1	0	0	219.275	224.687	227.978	6.49825	191.396	84.9065	37.4518	274.188	423.13	466.409	424.976	99.3029	378.202	251.212	155.288	601.712	40.324	229.876	40.637	284.539	216.890	218.543	229.548	218.950	8192	-8191	8192	8192	254	
76334.578	1	1	0	0	205.79	237.488	193.632	4.35295	179.83	90.2005	32.2645	285.86	425.327	486.442	422.885	105.731	384.087	257.514	159.26	601.264	47.920	233.136	42.472	265.169	213.192	220.422	222.780	218.191	8192	-8191	8192	8192	254	
76334.625	1	1	0	0	231.792	223.641	201.015	3.05568	201.714	94.3193	20.9254	302.698	430.745	466.726	432.567	113.812	391.947	263.625	158.236	618.745	42.063	227.782	42.551	258.604	214.164	217.956	234.914	221.790	8192	-8191	8192	8192	254	
76334.695	1	1	0	0	242.271	223.404	207.908	8.81618	186.676	93.6551	34.0693	306.103	455.462	471.865	436.173	116.178	388.462	258.106	163.327	620.904	41.042	228.209	42.216	12.336	220.262	220.696	242.420	215.882	8192	-8191	8192	8192	254	
76334.742	1	1	0	0	233.828	242.789	203.017	4.88792	194.102	97.6237	29.0863	286.099	452.303	481.861	433.938	122.188	389.25	260.5	174.442	611.981	44.152	228.692	40.948	218.544	214.682	220.777	213.287	220.264	8192	-8191	8192	8192	254	
76334.797	1	1	0	0	229.559	236.398	205.793	6.41752	189.477	96.3207	27.6798	296.299	452.082	484.154	438.26	127.942	391.365	268.288	175.779	608.553	42.968	229.419	44.599	204.804	215.778	223.739	210.658	213.635	8192	-8191	8192	8192	254	
76334.844	1	1	0	0	226.945	241.698	205.795	5.82128	182.172	94.1102	24.612	303.861	459.096	500.49	439.462	123.712	386.712	268.529	186.486	613.803	44.808	233.365	39.380	15.129	221.796	222.219	233.477	217.713	8192	-8191	8192	8192	254	
76334.891	1	1	0	0	237.29	230.191	225.334	7.43431	192.668	98.3203	27.9806	303.312	459.264	499.663	461.048	130.486	396.981	274.519	177.37	627.077	38.593	231.906	40.363	115.579	218.390	216.582	220.859	217.156	8192	-8191	8192	8192	254	
76334.938	1	1	0	0	202.037	232.278	211.36	1.88786	172.409	97.6019	30.4738	290.644	448.428	490.385	436.308	119.784	369.548	261.341	159.519	620.481	46.406	231.733	44.189	204.718	220.727	219.578	246.247	216.223	8192	-8191	8192	8192	254	
76334.938	1	1	0	0	211.037	228.273	205.729	4.19178	188.062	97.4219	33.6981	280.272	430.317	479.659	427.543	111.149	376.764	255.923	156.12	589.606	43.235	229.668	43.709	279.814	217.308	214.781	234.683	213.568	8192	-8191	8192	8192	254	
76334.984	1	1	0	0	216.633	244.321	219.648	4.61592	184.566	92.0506	22.9447	284.063	427.207	475.154	416.942	100.462	367.587	243.438	151.625	580.375	42.939	230.723	37.341	75.983	219.676	216.498	221.099	217.505	8192	-8191	8192	8192	254	
76335.031	1	1	0	0	230.594	220.747	214.4	6.79432	196.715	101.341	38.2328	284.767	437.909	459.894	420.212	97.6346	358.707	240.928	149.298	581.49	46.227	229.922	40.218	70.046	215.168	224.973	224.556	217.897	8192	-8191	8192	8192	254	
76335.078	1	1	0	0	216.196	223.174	215.976	3.91578	201.762	95.335	29.4758	278.584	419.317	455.654	407.51	93.4904	377.875	237.188	149.322	598.058	41.159	229.860	42.685	45.004	219.129	220.340	230.201	217.645	8192	-8191	8192	8192	254	
76335.156	1	1	0	0	224.701	243.196	198.847	14.3587	170.616	92.371	24.6034	281.072	421.981	462.918	405.774	88.5673	354.654	236.774	136.351	580.226	39.078	237.493	42.407	317.874	221.188	218.701	227.878	214.959	8192	-8191	8192	8192	254	
76335.203	1	1	0	0	230.6	231.17	212.527	8.52112	182.169	114.242	28.5068	288.382	427.091	449.543	418.466	86.976	363.827	241.572	145.048	586.072	42.887	233.706	43.439	208.877	220.307	217.825	227.007	213.720	8192	-8191	8192	8192	254	
76335.250	1	1	0	0	218.924	233.407	229.763	4.77134	195.131	91.5216	25.5874	302.67	427.053	451.726	406.721	91.5529	368.731	252.106	142.519	598.231	40.603	227.164	40.060	193.725	217.626	222.682	222.422	214.617	8192	-8191	8192	8192	254	
76335.297	1	1	0	0	222.784	232.735	204.588	7.63862	209.95	86.9597	31.6975	304.092	407.529	452.462	407.284	89.2115	362.611	236.548	141.817	593.356	42.577	234.907	41.945	268.346	216.604	228.162	210.936	220.646	8192	-8191	8192	8192	254	
76335.344	1	1	0	0	220.069	226.217	211.766	4.79738	169.833	88.3794	21.9662	277.186	423.495	465.909	425.808	103.663	390.115	255.034	164.692	612.178	43.269	232.654	41.070	79.675	216.825	213.350	214.573	215.179	8192	-8191	8192	8192	254	
76335.391	1	1	0	0	212.865	230.372	208.477	8.14212	184.19	103.326	46.6941	290.146	448.26	484.389	445.308	125.88	396.707	275.452	183.111	649.005	40.268	226.454	35.938	19.024	217.603	222.591	218.474	222.861	8192	-8191	8192	8192	254	
76335.469	1	1	0	0	220.206	211.262	203.086	6.9077	193.885	105.028	28.8653	275.193	468.952	511.082	480.13	170.298	451.909	340.827	255.245	697.918	41.611	229.830	44.937	326.642	213.111	223.457	235.906	214.320	8192	-8191	8192	8192	254	
76335.516	1	1	0	0	214.264	232.823	199.16	5.32486	169.107	85.4469	29.9646	278.161	537.322	574.423	542.212	236.288	513.986	396.75	312.163	768.409	46.461	229.823	39.246	285.377	219.337	220.209	226.446	218.666	8192	-8191	8192	8192	254	
76335.562	1	1	0	0	228.358	235.051	193.615	11.4335	192.805	99.0618	40.236	302.653	616.337	676.284	638.798	348.24	632.798	526.524	458.014	890.548	42.354	231.288	39.083	9.714	217.875	220.405	239.869	217.804	8192	-8191	8192	8192	254	
76335.609	1	1	0	0	232.611	225.809	224.045	20.0761	194.01	100.423	15.1716	310.485	753.341	793.216	786.125	465.447	728.87	608.365	516.197	950.611	39.868	230.769	44.429	317.233	215.881	220.471	221.635	221.987	8192	-8191	8192	8192	254	
76335.656	1	1	0	0	229.936	230.352	218.768	26.8953	190.816	107.351	31.8788	294.353	753.697	785.082	742.962	400.159	681.615	549.404	445.692	901.606	39.218	230.518	40.007	62.718	218.702	220.844	233.301	214.832	8192	-8191	8192	8192	254	
76335.703	1	1	0	0	211.879	228.192	199.296	15.0188	187.274	107.079	34.0466	322.796	725.389	761.38	717.505	381.284	669.423	553.865	459.957	922.216	44.600	227.073	37.935	321.808	219.483	224.857	210.981	216.370	8192	-8191	8192	8192	254	
76335.703	1	1	0	0	225.707	221.75	191.97	3.85298	207.456	87.5826	27.0948	285.476	736.053	760.462	710.957	411.601	683.317	561.534	481.519	912.101	41.337	231.769	43.990	308.049	217.992	216.195	208.587	209.403	8192	-8191	8192	8192	254	
76335.750	1	1	0	0	213.132	224.948	222.593	15.7589	213.155	104.419	23.5499	312.501	772.303	785.75	757.697	440.139	730.769	620.067	526.476	963.183	42.677	228.985	43.179	14.402	212.397	222.439	231.277	211.017	8192	-8191	8192	8192	254	
76335.828	1	1	0	0	230.185	218.308	213.747	9.96839	215.831	77.941	15.2333	313.818	799.827	839.087	805.438	482.909	753.731	629.149	550.274	1003.66	36.324	236.592	37.297	5.407	222.077	226.127	213.017	217.315	8192	-8191	8192	8192	254	
76335.875	1	1	0	0	240.625	232.793	205.439	13.347	190.702	96.4406	31.0279	293.162	838.101	891.486	835.678	519.923	789.649	659.514	571.163	1035.45	44.324	234.986	34.147	84.828	216.811	218.218	209.273	215.102	8192	-8191	8192	8192	254	
76335.922	1	1	0	0	206.189	237.018	207.371	15.5721	190.934	91.2873	24.4473	293.062	858.716	909.413	834.125	537.49	827.832	698.889	598.433	1057.1	44.868	236.620	43.017	181.104	221.406	210.485	245.751	217.676	8192	-8191	8192	8192	254	
76335.969	1	1	0	0	209.301	218.163	191.122	12.2222	173.243	85.2191	38.2246	263.346	873.885	934.245	863.702	558.394	830.5	696.952	625.101	1054.75	44.904	231.620	38.594	253.351	217.827	222.229	241.833	214.395	8192	-8191	8192	8192	254	
76336.016	1	1	0	0	209.613	230.228	193.468	10.8146	177.174	101.34	23.6534	290.943	884.207	917.788	867.615	568.274	829.966	702.543	599.457	1042.35	38.503	229.431	40.058	198.702	219.059	233.872	230.124	212.587	8192	-8191	8192	8192	254	
76336.062	1	1	0	0	221.623	221.36	215.391	28.5254	140.594	49.5787	16.5636	71.0137	876.135	920.159	831.351	504.702	687.606	497.216	359.49	429.327	42.567	227.752	40.795	305.181	214.930	202.383	239.457	226.636	8192	-8191	8192	8192	254	
76336.109	1	1	0	65536	26.777	13.2109	4.25482	4.04174	6.36919	9.1453	2.10649	12.9521	278.149	243.764	235.707	221.596	228.346	217.409	247.736	481.062	88.400	223.472	46.974	44.548	309.106	303.884	233.395	250.347	8192	-8191	8192	8192	254	
76336.164	1	1	0	65536	16.1751	165.73	90.4355	34.534	121.185	43.553	88.7487	140.743	2997.82	18006.1	26999.1	30748.5	30279.5	30522.7	27733.1	26964.4	77.196	103.255	84.845	269.329	25.773	223.793	230.081	48.956	8192	-8191	8192	8192	254	
76336.211	1	1	0	65536	69.266	125.08	64.4598	69.2224	67.8308	73.6495	89.5788	80.6614	26962.2	27511.8	28136.3	29170	30604.5	31877.8	32312.9	32375.9	132.433	277.030	355.512	6.546	116.998	339.045	223.338	275.419	8192	-8191	8192	8192	254	
76336.258	1	1	0	65536	137.092	41.2597	27.4606	119.284	126.424	112.752	40.071	128.292	32504.1	32509.7	32482.2	32096.5	31206.7	30486.2	29822.9	28926.9	186.469	225.657	7.568	138.395	170.971	323.508	77.788	338.971	8192	-8191	8192	8192	254	
76336.328	1	1	0	65536	82.4152	59.3401	32.5671	187.996	127.291	62.4609	14.3098	4.11602	28582.8	29820.9	29848.6	30283.6	30486.5	31893.8	32737.2	32761.9	144.210	223.789	323.816	208.322	312.168	322.950	302.601	51.055	8192	-8191	8192	8192	254	
76336.375	1	1	0	65536	0	0	3.25	24.1952	64.0419	128.274	56.7298	164.789	32767	32767	32765.1	32697.1	32150.6	31617.3	31695.1	32113.3	180.000	180.000	90.000	202.895	328.082	4.310	115.769	8.947	8192	-8191	8192	8192	254	
76336.422	1	1	0	65536	36.0707	195.746	59.4075	0	0	0	0	1.57692	30644.6	29967.9	32072.1	32767	32767	32767	32767	32766.2	120.590	114.930	162.471	180.000	180.000	180.000	180.000	225.000	8192	-8191	8192	8192	254	
76336.477	1	1	0	65536	16.2475	10.2321	2.41346	0	0	0	1.93933	0	32733.8	32752.3	32765.8	32767	32767	32767	32745.8	32767	87.810	81.347	90.000	180.000	180.000	180.000	238.056	180.000	8192	-8191	8192	8192	254	
76336.477	1	1	0	65536	0	0	212.296	113.753	93.5885	49.73	4.97669	5.89393	32767	32767	29232.5	15134.4	4541.54	1930.72	1896.51	1833.81	180.000	180.000	272.118	289.806	249.723	270.247	308.530	272.104	8192	-8191	8192	8192	254	
76336.523	1	1	0	65536	9.27719	32.2599	4.70974	9.83563	36.3237	25.0527	12.0199	38.6222	1837.7	1787.55	1785.74	1746.57	1783.18	1824.24	1845.86	1873.11	63.753	18.551	219.095	97.201	316.235	233.019	47.852	101.872	8192	-8191	8192	8192	254	
76336.570	1	1	0	0	17.8855	60.005	19.4263	42.05	31.2927	35.4286	44.7879	54.1622	2029.25	2155.5	2268.75	2727.13	6161.92	7276.18	7333.89	7388.21	353.614	177.136	144.124	340.333	146.870	341.413	125.604	150.014	8192	-8191	8192	8192	254	
76336.617	1	1	0	0	75.1144	53.8025	71.3654	76.9664	46.9589	51.4469	24.247	102.116	7473.26	8470.77	10038.9	8746.32	7084.88	5883.14	5556.73	5475.96	345.385	14.458	11.466	261.207	257.070	28.692	90.286	247.543	8192	-8191	8192	8192	254	
76336.688	1	1	0	0	72.934	45.6522	20.5938	18.2828	29.3602	9.60238	89.0298	42.1329	5504.41	5578.24	5560.36	5414.06	5285.7	4690.64	3879.63	2957.1	115.510	103.424	30.676	107.871	274.535	320.175	14.748	312.016	8192	-8191	8192	8192	254	
76336.734	1	1	0	0	40.7351	29.155	22.685	22.5986	16.3476	4.13024	14.2064	20.8632	2026.64	1332.85	984.457	768.183	593.375	489.082	443.707	428.99	236.756	168.325	295.330	205.361	301.174	110.795	275.792	215.277	8192	-8191	8192	8192	254	
76336.781	1	1	0	0	8.08968	6.68047	11.7375	9.31512	19.8187	6.39994	10.4771	23.1781	427.731	426.457	434.423	404.163	390.543	371.553	341.428	317.74	19.924	143.645	320.329	137.517	22.870	227.557	359.492	351.599	8192	-8191	8192	8192	254	
76336.836	1	1	0	0	13.6355	6.39082	11.2934	8.54215	5.6093	10.6001	8.79265	2.08637	305.938	304.284	297.255	284.841	279.346	263.303	267.601	250.582	308.629	188.873	75.093	109.334	340.427	71.188	303.770	314.009	8192	-8191	8192	8192	254	
76336.883	1	1	0	0	11.7052	8.4844	5.67407	12.7168	6.43774	6.17108	3.43296	8.02329	252.957	243.149	224.26	216.909	210.817	207.851	207.697	194.976	227.003	164.004	252.773	33.745	255.981	186.538	283.572	305.746	8192	-8191	8192	8192	254	
76336.930	1	1	0	0	7.06585	14.249	3.8874	10.6874	2.13225	6.51448	1.86888	11.4191	199.606	201.534	203.875	204.404	200.899	194.399	204.755	215.885	205.872	266.885	269.410	317.093	338.894	211.971	258.334	272.758	8192	-8191	8192	8192	254	
76337.000	1	1	0	0	7.46162	6.2576	10.2096	10.7432	23.0297	30.9789	15.7855	85.5327	222.822	234.37	277.125	292.986	388.635	447.221	479.736	652.918	310.757	138.399	80.277	356.978	262.801	230.895	261.613	210.267	8192	-8191	8192	8192	254	
76337.047	1	1	0	0	35.8717	56.4255	58.8932	24.8942	64.4545	34.7299	5.83352	86.3365	601.389	619.861	614.351	511.933	592.846	578.447	535.053	673.255	61.915	251.051	48.851	180.377	222.591	240.257	268.352	224.019	8192	-8191	8192	8192	254	
76337.094	1	1	0	0	58.2309	67.8098	60.9086	13.1876	51.462	30.1637	3.57524	76.7807	602.332	615.37	596.216	525.409	604.154	577.087	534.63	677.12	49.971	233.355	39.848	357.415	223.239	234.972	262.279	209.004	8192	-8191	8192	8192	254	
76337.148	1	1	0	0	80.1723	81.5736	61.0176	7.88283	54.4774	50.1933	10.1401	71.9026	604.144	640.601	627.005	512.938	591.529	570.514	522.524	665.558	50.285	240.990	44.796	190.364	225.129	219.912	317.838	219.981	8192	-8191	8192	8192	254	
76337.195	1	1	0	0	69.8515	73.0056	55.2292	5.41325	67.1757	36.5899	10.8925	97.8671	589.207	617.659	590.668	496.317	593.909	541.236	529.298	645.486	39.992	241.606	41.230	80.535	202.007	254.944	332.164	214.647	8192	-8191	8192	8192	254	
76337.242	1	1	0	0	75.514	59.0998	80.5159	14.2036	56.5482	34.1487	9.25979	103.732	589.125	599.178	573.067	476.957	563.312	513.678	471.077	623.317	56.336	258.117	33.076	108.835	214.591	209.282	231.049	219.881	8192	-8191	8192	8192	254	
76337.242	1	1	0	0	69.0024	77.2061	65.7996	10.9257	55.6123	24.6106	12.6321	104.604	544.587	563.231	539.784	444.635	510.659	461.038	449.288	583.543	37.005	247.038	28.681	77.449	212.743	188.852	189.773	222.378	8192	-8191	8192	8192	254	
76337.289	1	1	0	0	60.7423	66.3526	51.9421	6.62645	74.9586	32.4551	11.456	88.3822	504.856	518.702	489.014	397.154	473.774	421.837	386.577	532.995	56.551	225.725	47.599	55.414	217.077	219.230	221.899	214.845	8192	-8191	8192	8192	254	
76337.336	1	1	0	0	51.4085	63.9559	57.8479	7.73228	52.3746	28.6254	13.0818	101.691	460.101	452.433	432.255	330.788	406.495	368.649	336.207	462.067	61.800	234.384	57.815	4.087	224.502	233.583	230.793	231.667	8192	-8191	8192	8192	254	
76337.383	1	1	0	0	77.1333	64.3539	58.9005	7.61882	61.1286	28.9042	17.4344	81.4047	407.062	404.702	380.207	292.226	359.913	310.913	282.784	411.188	52.417	231.449	25.519	355.555	202.481	243.265	163.013	227.989	8192	-8191	8192	8192	254	
76337.453	1	1	0	0	79.3381	69.0517	54.7257	8.26599	55.3267	20.6632	12.2906	71.5238	355.351	357.188	341.51	236.625	312.279	279.288	225.803	357.913	50.955	235.126	47.511	243.727	223.612	211.093	258.830	225.893	8192	-8191	8192	8192	254	
76337.508	1	1	0	0	62.9746	36.4338	77.6653	5.28377	57.2164	32.3222	6.76052	94.0121	290.5	286.284	269.312	167.284	229.106	191.644	157.26	286.38	46.615	252.499	46.509	321.266	232.096	245.237	213.936	222.885	8192	-8191	8192	8192	254	
76337.555	1	1	0	0	52.3832	64.4437	53.0234	3.48024	48.6457	19.4333	18.6667	87.0298	204.803	212.385	205.49	111.038	185.514	140.587	117.236	242.692	49.756	242.131	46.345	209.657	216.461	225.907	230.268	224.064	8192	-8191	8192	8192	254	
76337.602	1	1	0	0	63.0457	57.0489	53.1351	2.56869	47.5268	28.1638	13.7301	90.2882	177.067	192.077	180.942	88.5288	165.361	131.995	111.154	237.947	49.847	240.781	51.673	129.116	221.392	215.628	223.261	222.784	8192	-8191	8192	8192	254	
76337.648	1	1	0	0	65.22	48.8991	58.4018	8.04327	54.9392	29.2011	4.9121	77.996	181.394	188.356	173.654	96.3942	159.639	135.197	105.279	230.764	45.029	239.365	48.673	228.932	225.201	219.135	211.791	220.079	8192	-8191	8192	8192	254	
76337.695	1	1	0	0	55.7322	56.5565	60.7549	7.42919	55.6704	19.5358	11.1123	79.2545	179.721	188.981	183.452	91.976	166.038	126.13	107.606	230.582	46.119	244.087	41.367	173.757	221.398	241.004	238.818	223.423	8192	-8191	8192	8192	254	
76337.742	1	1	0	0	68.5997	45.4915	49.3867	3.93777	46.1414	23.7297	16.6874	91.6542	176.269	185.615	162.154	87.0144	159.413	143.731	103.889	231.726	54.309	221.110	42.989	116.540	223.680	231.619	207.630	227.302	8192	-8191	8192	8192	254	
76337.797	1	1	0	0	61.9029	64.9646	47.7478	2.51826	59.8538	30.6903	10.9391	75.0018	168.904	186.688	163.856	88.4856	164.178	134.803	104.673	227.673	45.912	235.171	43.860	106.706	221.634	206.167	262.989	227.497	8192	-8191	8192	8192	254	
76337.867	1	1	0	0	59.2972	55.4794	53.0314	2.50342	54.5195	32.3473	4.71628	73.6919	179.38	181	169.769	82.5721	159.62	132.274	96.0144	229.38	45.226	231.702	43.934	359.787	222.498	227.715	168.634	223.341	8192	-8191	8192	8192	254	
76337.914	1	1	0	0	57.4707	52.7673	58.8937	2.1831	45.583	20.0221	3.50461	89.8259	174.793	184.014	184.245	99.2885	178.692	148.149	127.447	254.649	47.263	235.100	38.712	132.062	213.709	251.366	221.288	221.943	8192	-8191	8192	8192	254	
76337.961	1	1	0	0	57.2487	60.715	51.0531	5.96788	56.453	19.9039	6.98084	70.7452	199.077	212.091	211.702	122.062	194.582	169.745	147.312	276.202	43.455	238.353	49.324	170.732	222.059	225.854	223.421	213.132	8192	-8191	8192	8192	254	
76338.008	1	1	0	0	57.6136	50.7977	50.059	1.26882	51.3141	30.1414	10.2247	86.5695	231.774	238.462	228.635	144.25	225.668	203.615	173.101	299.832	42.566	224.883	48.903	184.477	208.540	211.481	155.035	219.027	8192	-8191	8192	8192	254	
76338.008	1	1	0	0	55.2195	72.7826	61.0156	5.96267	48.6434	31.3432	4.3578	87.6413	264.043	279.74	271.923	202.077	271.207	240.716	206.298	316.745	35.353	237.141	34.973	317.529	222.097	231.933	145.175	217.522	8192	-8191	8192	8192	254	
76338.055	1	1	0	0	50.5962	55.5218	50.0409	10.7976	53.7317	36.1203	1.54317	93.6718	253.216	254.635	235.62	156.298	224.13	194.87	158.178	287.529	54.944	240.622	41.773	140.694	217.718	213.377	246.279	223.223	8192	-8191	8192	8192	254	
76338.102	1	1	0	0	54.3717	50.7579	49.7914	7.33447	56.6238	28.1983	10.6626	81.8631	230.606	229.058	229.139	146.096	214.087	189.875	154.678	287.226	45.191	228.921	52.168	160.811	222.638	239.787	195.948	226.841	8192	-8191	8192	8192	254	
76338.156	1	1	0	0	60.237	67.0151	57.8957	3.47907	42.9262	25.1583	5.06376	91.8998	224.611	228.413	219.029	133.558	207.755	167.933	145.341	282.486	46.389	233.825	48.065	87.697	210.167	215.943	134.853	225.090	8192	-8191	8192	8192	254	
76338.227	1	1	0	0	52.1056	53.3657	48.8299	10.5952	61.2592	34.031	3.50389	69.5955	214.942	225.091	216.37	138.01	197.337	169.793	143.058	260.269	53.774	245.041	49.246	75.669	224.103	212.299	272.304	225.118	8192	-8191	8192	8192	254	
76338.273	1	1	0	0	67.6197	50.4133	65.5898	7.5588	56.4665	36.5322	14.434	81.9012	214.918	228.495	215.346	126.212	193.957	168.933	133.471	271.462	43.979	245.103	48.092	131.416	223.380	233.215	186.410	216.564	8192	-8191	8192	8192	254	
76338.320	1	1	0	0	62.3412	71.6621	62.1332	5.48552	60.5989	31.4316	0.405811	90.9865	209.736	225.5	213.716	120	190.875	164.981	137.774	272.37	41.375	233.375	57.417	275.138	216.452	226.412	198.468	213.786	8192	-8191	8192	8192	254	
76338.367	1	1	0	0	65.7457	63.2066	57.6936	7.04973	53.6806	23.6114	13.9807	80.4901	206.654	228.846	203.293	128.688	198.981	160.154	132.038	257.774	46.998	245.723	45.576	304.113	226.937	229.047	199.591	222.866	8192	-8191	8192	8192	254	
76338.414	1	1	0	0	57.8108	65.2955	43.3321	7.15485	52.0989	24.3852	13.6921	79.2982	206.466	212.495	205.909	119.332	194.904	162.62	141.058	250.702	47.745	229.916	37.654	89.713	213.315	237.942	222.978	222.759	8192	-8191	8192	8192	254	
76338.469	1	1	0	0	46.3692	53.1368	57.6205	5.86567	48.6632	27.5254	9.70053	81.4701	194.779	213.49	200.034	113.625	190.712	153.159	129.601	265.163	47.823	240.721	48.631	133.401	213.535	217.793	265.267	223.815	8192	-8191	8192	8192	254	
76338.539	1	1	0	0	65.9789	66.842	55.8359	14.0564	49.6717	32.9718	6.97307	90.4296	198.942	207.337	204.058	117.163	191.529	164.101	125.837	257.75	54.195	244.206	55.764	309.635	234.122	216.733	267.389	219.612	8192	-8191	8192	8192	254	
76338.586	1	1	0	0	61.7961	51.6803	44.7002	5.27864	47.6945	23.7388	13.5564	85.1756	197.284	211.019	193.514	115.981	194.207	156.49	131.918	250.587	50.888	234.242	46.701	65.848	217.552	196.684	210.665	223.456	8192	-8191	8192	8192	254	
76338.633	1	1	0	0	50.9604	52.6133	62.1596	2.6862	59.0093	24.2655	14.7764	93.0658	195.096	201.543	199.683	113.293	186.409	161.995	128.788	250.74	54.242	221.302	48.203	29.638	214.512	205.446	269.746	216.511	8192	-8191	8192	8192	254	
76338.680	1	1	0	0	70.9031	56.0612	45.8326	8.11051	43.6047	25.7187	7.01899	89.2359	199.75	200.697	190.962	112.433	173.413	151.764	122.913	263.269	55.272	236.464	48.000	85.508	224.616	241.337	256.888	226.531	8192	-8191	8192	8192	254	
76338.727	1	1	0	0	68.5038	68.0712	51.1813	4.39656	43.4373	19.1843	12.8316	75.1789	205.433	208.067	192.038	109.466	172.101	151.654	128.043	253.26	49.843	240.528	57.277	114.862	217.343	203.685	234.320	225.180	8192	-8191	8192	8192	254	
76338.773	1	1	0	0	63.9065	63.3425	60.9877	5.66875	49.2507	31.2521	9.22401	74.5747	202.428	207.837	190.404	115.312	190.769	155.149	125.192	254.837	54.887	234.696	38.124	216.073	219.277	237.285	210.028	230.510	8192	-8191	8192	8192	254	
76338.781	1	1	0	0	57.0117	53.0947	57.5208	2.22424	57.4168	21.0119	7.20483	87.1181	196.861	213.668	193.548	108.072	190.933	146.837	123.082	254.788	52.091	226.372	43.198	277.125	226.583	226.813	219.279	227.985	8192	-8191	8192	8192	254	
76338.828	1	1	0	0	52.3662	59.421	60.7245	3.65018	51.6742	20.8049	7.96845	79.7633	194.356	203.635	186.082	111.255	186.462	151.457	131.038	263.668	60.086	231.394	47.871	315.086	223.810	229.490	253.186	215.591	8192	-8191	8192	8192	254	
76338.898	1	1	0	0	67.8375	63.9859	55.7543	8.0934	46.3287	24.9531	4.56567	63.6569	196.51	215.635	201.322	109.904	178.216	154.543	123.582	262.524	42.870	237.111	47.472	262.033	219.224	235.488	189.322	220.573	8192	-8191	8192	8192	254	
76338.945	1	1	0	0	53.3485	60.2428	58.3941	13.575	51.5592	19.1385	7.96719	75.7495	196.885	202.952	185.572	107.812	182.615	132.447	125.298	245.793	39.340	234.880	45.521	117.102	224.797	224.756	225.604	226.453	8192	-8191	8192	8192	254	
76338.992	1	1	0	0	64.1105	57.6505	52.6644	2.28033	47.3479	30.0567	16.3694	91.6187	189.851	190.558	192.962	100.159	183.269	141.125	110.245	240.962	54.519	229.242	41.086	61.567	220.776	236.135	218.070	219.999	8192	-8191	8192	8192	254	
76339.039	1	1	0	0	52.2742	49.438	54.485	3.35207	50.0974	30.035	7.53234	78.1668	179.659	198.774	187.697	98.9952	174.938	142.062	116.736	243.034	56.728	229.926	49.919	307.739	215.832	238.949	274.773	227.734	8192	-8191	8192	8192	254	
76339.086	1	1	0	0	57.3461	59.9998	58.944	10.1628	64.5496	22.1048	11.5415	83.5519	184.149	200.553	177	95.5865	181.683	139.346	121.159	245.798	47.461	244.574	42.197	250.164	215.574	227.937	210.563	221.942	8192	-8191	8192	8192	254	
76339.141	1	1	0	0	59.5743	59.9932	57.2498	4.10877	47.1074	27.2186	11.0413	85.7897	188.731	200.202	187.707	102.788	182.62	139.159	115.861	242.63	46.816	232.367	42.125	322.281	227.606	212.245	298.729	221.850	8192	-8191	8192	8192	254	
76339.188	1	1	0	0	59.9405	56.0085	46.9904	1.18909	46.6208	20.7757	5.92144	88.8379	180.663	177.505	183.913	93.2548	175.067	141.26	110.779	245.639	49.678	237.754	44.199	25.242	236.088	229.273	215.002	223.240	8192	-8191	8192	8192	254	
76339.234	1	1	0	0	57.8678	59.1008	57.6277	3.25917	47.9409	26.4972	6.6068	73.7989	192.111	193.12	176.284	90.6538	163.014	135.13	109.413	243.5	53.916	243.388	46.436	175.204	223.256	224.610	225.653	227.594	8192	-8191	8192	8192	254	
76339.281	1	1	0	0	62.3425	63.7094	47.4483	5.17131	51.2487	14.3751	16.278	73.5886	183.779	194.351	176.899	93.7404	168.423	129.019	111.755	237.841	45.611	229.116	40.645	297.549	225.434	209.867	220.603	215.678	8192	-8191	8192	8192	254	
76339.328	1	1	0	0	57.6848	63.9661	51.9785	5.29299	50.7479	20.4657	6.9998	83.7253	175.745	196.726	180.471	90.1298	166	134.038	111.529	231.091	40.353	235.129	40.834	72.429	218.628	230.482	224.489	221.445	8192	-8191	8192	8192	254	
76339.398	1	1	0	0	56.1313	58.9219	51.8712	1.59179	42.1323	29.4603	8.92447	87.5214	181.514	190.731	179.822	98.3221	159.327	144.072	110.202	241.644	54.162	237.349	40.715	334.721	220.826	228.844	193.963	219.576	8192	-8191	8192	8192	254	
76339.453	1	1	0	0	57.7947	55.8606	49.3009	3.53292	49.0386	25.653	9.80101	90.7178	180.601	197.966	184.346	98.6923	167.707	154.466	114.827	243.625	55.251	240.782	41.552	99.758	232.078	219.271	161.027	222.922	8192	-8191	8192	8192	254	
76339.500	1	1	0	0	51.0831	72.373	57.5194	4.06226	60.5353	23.9331	4.11142	75.6335	180.611	195.524	183.827	103.591	175.399	151.245	119.058	246.611	47.471	237.311	40.524	232.103	222.759	238.857	99.003	233.213	8192	-8191	8192	8192	254	
76339.547	1	1	0	0	55.4841	63.9076	57.2221	4.33467	47.8853	29.1581	16.6298	84.0554	188.356	194.529	183.678	98.726	174.904	142.101	119.226	235.284	34.545	234.416	41.715	87.420	226.409	224.706	211.675	224.654	8192	-8191	8192	8192	254	
76339.547	1	1	7	0	55.7673	51.1178	46.7018	3.06539	49.2267	21.8596	17.1754	86.6471	184.423	187.298	172.558	104.88	174.683	148.856	116.361	250.928	44.212	236.707	43.368	85.876	226.641	211.046	230.280	217.824	8192	-8191	8192	8192	254	
76339.594	1	1	0	0	65.0873	64.3832	54.2284	5.61369	50.9524	29.8668	1.74984	85.5651	185.043	199.154	187.611	99.0481	171.514	146.678	119.058	239.784	41.682	239.481	57.876	140.633	220.656	218.559	247.959	222.589	8192	-8191	8192	8192	254	
76339.641	1	1	0	0	64.072	52.6435	54.9309	8.79486	50.9222	29.3096	12.5862	84.5769	182.457	189.067	186.014	98.0817	177.971	142.731	118.865	238.481	47.108	231.835	40.882	43.860	228.788	221.070	249.025	214.977	8192	-8191	8192	8192	254	
76339.688	1	1	0	0	64.7558	70.8537	47.8528	1.27362	50.5575	24.174	7.7899	72.8969	184.452	193.312	181.591	103.793	177.832	134.389	110.75	231.5	64.111	230.615	47.103	298.579	218.833	210.665	183.325	226.097	8192	-8191	8192	8192	254	
76339.766	1	1	0	0	53.9861	52.4324	56.6052	5.17883	40.6469	31.2407	11.0908	90.3812	183.505	197.543	191.423	100.438	172.221	137.447	115.731	240.519	49.347	233.515	37.260	335.550	227.179	231.650	232.421	223.871	8192	-8191	8192	8192	254	
76339.812	1	1	0	0	58.8651	62.7988	55.8902	7.7662	46.3768	28.2762	14.7325	97.0481	180.755	201.928	183.548	97.0769	169.812	140.827	120.111	251.062	48.972	232.851	47.086	324.219	221.386	216.706	226.383	231.066	8192	-8191	8192	8192	254	
76339.859	1	1	0	0	59.8611	57.0362	45.9074	7.21661	58.2872	14.363	2.61184	80.371	187.784	198.149	180.567	99.9519	175.284	145.88	117.101	248.822	51.396	234.755	39.186	109.813	223.029	223.079	168.462	232.536	8192	-8191	8192	8192	254	
76339.906	1	1	0	0	45.8892	60.5321	64.7208	7.77105	47.0989	16.6502	9.75121	83.1227	180.212	202.918	189.899	99.3462	177.909	141.38	117.288	240.88	59.986	241.838	40.201	35.816	227.708	226.841	232.998	229.762	8192	-8191	8192	8192	254	
76339.953	1	1	0	0	53.7609	59.4623	60.2694	2.4346	45.5844	23.6019	9.1986	85.8635	190.212	185.13	186.63	101.514	170.649	142.601	115.149	248.433	47.277	244.914	47.781	40.683	231.822	234.124	223.039	223.806	8192	-8191	8192	8192	254	
76340.000	1	1	0	0	68.5385	66.2452	61.6851	3.64275	48.5498	32.4922	5.92136	77.5779	198.918	202.822	188.971	104.832	176.423	152.553	113.918	250.697	42.443	231.895	49.719	21.806	224.835	234.063	231.188	227.781	8192	-8191	8192	8192	254	
76340.070	1	1	0	0	54.0646	67.2716	59.7446	5.66774	39.9482	23.5624	6.51972	75.9884	193.726	204.764	186.37	110.538	174.659	149.899	111.288	241.923	51.136	235.525	51.039	140.741	209.420	244.975	222.390	235.330	8192	-8191	8192	8192	254	
76340.117	1	1	0	0	66.1527	64.4482	60.3489	3.68056	65.1465	27.6117	13.1588	67.9144	187.476	201.649	189.221	110.005	186.188	146.231	116.361	232.731	46.811	241.130	52.278	26.262	223.850	222.219	254.132	221.327	8192	-8191	8192	8192	254	
76340.172	1	1	0	0	62.539	51.434	57.6983	4.11215	54.5623	27.6518	11.8274	81.7756	187.192	196.726	195.649	107.12	181.168	147.553	121.726	249.293	53.540	242.947	48.150	94.312	215.276	235.401	254.213	218.496	8192	-8191	8192	8192	254	
76340.219	1	1	0	0	50.717	61.0676	49.7754	2.98981	58.4766	28.1849	7.46813	105.064	190.904	199.995	191.183	106.216	184.861	150.01	120.442	252.615	46.434	236.394	51.023	246.147	219.883	234.258	286.340	220.755	8192	-8191	8192	8192	254	
76340.266	1	1	0	0	68.3454	49.5171	52.8505	3.30456	59.6094	33.5914	8.9594	84.239	193.394	198.019	185.899	105.75	184.341	151.856	122.178	257.904	47.453	233.964	46.415	172.241	228.388	226.310	268.989	216.588	8192	-8191	8192	8192	254	
76340.312	1	1	0	0	57.9481	52.355	56.3854	6.51264	53.2408	29.3457	1.75697	92.64	194.678	203.476	185.428	109.74	182.986	151.51	122.135	247.995	57.092	233.499	31.989	285.671	221.004	222.554	217.621	231.650	8192	-8191	8192	8192	254	
76340.312	1	1	0	0	55.5958	63.0628	54.0379	4.54367	49.5634	30.7524	17.0921	74.5761	187.933	198.197	187.976	112.486	186.188	153.87	123.13	251.582	44.982	243.206	35.101	155.727	219.874	217.032	236.099	212.819	8192	-8191	8192	8192	254	
76340.359	1	1	0	0	55.6921	53.845	49.1504	6.18883	52.4982	21.7726	4.11004	81.3637	193.812	206.673	184.072	106.668	182.221	152.803	127.832	242.702	58.186	242.246	49.066	345.572	221.680	242.296	2.986	224.008	8192	-8191	8192	8192	254	
76340.430	1	1	0	0	64.6996	52.144	55.4375	0.751622	55.8915	28.5797	13.7001	78.2206	191.764	201.76	186.788	109.062	184.721	150.769	120.183	246.49	43.841	240.661	47.678	113.692	229.377	219.836	285.628	222.252	8192	-8191	8192	8192	254	
76340.484	1	1	0	0	56.0143	61.7989	51.3626	9.78932	47.7862	39.1233	6.72868	78.9317	192.769	199.221	193.077	106.688	187.043	155.736	119.793	251.423	48.352	239.661	51.877	76.120	220.627	212.557	151.921	222.169	8192	-8191	8192	8192	254	
76340.531	1	1	0	0	59.6775	52.003	51.3093	6.71656	56.9423	37.4835	23.4072	89.4777	202.587	197.913	188.832	110.514	188.245	153.144	127.024	255.87	36.761	233.992	47.668	311.005	225.574	222.166	249.398	215.822	8192	-8191	8192	8192	254	
76340.578	1	1	0	0	59.2407	70.4519	58.8	2.8805	56.1874	21.8987	7.29128	74.9413	193.466	202.413	195.062	108.683	189.659	155.606	126.37	246.12	33.105	236.990	56.065	83.243	223.492	225.627	252.665	215.227	8192	-8191	8192	8192	254	
76340.625	1	1	0	0	64.8587	59.1469	40.4709	5.37063	52.167	28.3447	4.49435	79.6179	192.793	205.577	192.139	113.159	179.317	142.548	120.019	252.712	50.926	229.331	51.737	305.082	225.749	235.256	236.952	223.153	8192	-8191	8192	8192	254	
76340.672	1	1	0	0	49.2083	66.1727	43.0649	7.21538	58.6589	26.0525	11.2043	75.4905	190.269	204.115	192.63	112.466	179.024	149.365	128.736	248.173	37.518	226.480	42.946	344.167	219.410	234.291	266.332	218.884	8192	-8191	8192	8192	254	
76340.719	1	1	0	0	54.1961	53.3137	44.8437	9.08561	49.3163	23.6847	12.8848	73.5075	187.928	202.476	186.99	104.841	183.226	153.822	118.649	240.678	52.162	230.852	42.289	64.081	219.311	217.929	214.237	231.843	8192	-8191	8192	8192	254	
76340.766	1	1	0	0	59.6818	55.9916	54.1381	7.88725	54.5327	34.1747	7.14972	84.6919	200.702	200.889	193.365	108.173	184.034	152.625	121.697	253.543	52.688	234.261	53.567	43.592	232.005	231.165	205.638	217.916	8192	-8191	8192	8192	254	
76340.844	1	1	0	0	63.4644	53.2356	55.5628	7.42776	55.3761	30.3511	8.42203	84.8718	199.111	199.591	185.452	104.442	180.462	150.188	121.841	242.49	53.890	251.925	57.267	228.284	229.322	225.014	267.684	221.132	8192	-8191	8192	8192	254	
76340.891	1	1	0	0	60.4135	59.9673	47.1579	3.50791	47.3526	15.3647	5.22759	90.265	190.043	209.077	193.587	107.543	180.216	141.553	118.144	253.495	49.894	233.273	51.664	215.733	219.521	207.804	166.047	225.490	8192	-8191	8192	8192	254	
76340.938	1	1	0	0	52.5524	46.8723	53.9137	10.1185	38.5868	22.3714	2.71628	97.4455	181.067	193.558	183.822	111.375	177.168	150.707	119.668	251.106	40.544	241.143	49.676	311.210	223.261	210.857	352.706	224.420	8192	-8191	8192	8192	254	
76340.984	1	1	0	0	68.3603	70.6538	64.0787	6.17178	58.2213	27.2994	14.1148	87.9467	194.788	199.476	186.029	108.755	184.644	150.12	119.471	260.904	55.444	223.507	45.799	90.192	235.125	235.012	196.505	223.954	8192	-8191	8192	8192	254	
76341.031	1	1	0	0	62.5234	65.476	54.8915	6.20568	61.6224	36.6325	3.51996	78.4995	194.361	191.591	188.139	103.913	186.774	148.995	130.837	248.284	41.182	235.142	39.876	101.503	224.069	224.166	170.935	220.581	8192	-8191	8192	8192	254	
76341.078	1	1	0	0	63.6712	60.0299	44.8942	6.4059	62.0304	28.1062	8.24563	84.0825	194.721	203.221	185.986	113.712	180.976	145.75	118.534	250.486	48.407	234.131	43.948	119.339	213.937	229.674	217.226	227.822	8192	-8191	8192	8192	254	
76341.078	1	1	0	0	56.5326	52.7311	66.8335	4.81477	63.7256	17.3433	8.73527	71.1622	192.495	195.856	192.486	105.889	183.88	154.438	119.514	257.346	67.073	234.516	43.386	114.806	219.696	239.064	208.574	221.640	8192	-8191	8192	8192	254	
76341.133	1	1	0	0	50.985	59.1828	55.5306	5.41635	56.1089	33.5981	13.7351	81.002	185.144	205.192	187.942	109.428	181.798	143.716	125.529	236.091	50.114	240.189	46.583	346.485	223.217	205.896	225.400	223.328	8192	-8191	8192	8192	254	
76341.180	1	1	0	0	66.5965	58.3933	48.263	12.8469	58.5222	28.6299	13.5549	90.0206	196.596	192.404	184.034	111.649	181.635	143.966	123.553	245.591	57.188	248.849	50.728	269.593	219.361	231.472	237.650	230.150	8192	-8191	8192	8192	254	
76341.227	1	1	0	0	69.9363	55.1813	46.9482	4.9356	41.2487	26.3105	4.03221	79.0903	200.938	205.053	180.99	109.317	175.976	147.351	119.505	237.856	50.287	240.192	42.112	284.262	227.147	231.303	125.618	230.868	8192	-8191	8192	8192	254	
76341.297	1	1	0	0	63.0856	59.9553	50.4094	3.46078	55.1001	31.4433	10.3237	97.0161	197.115	206.505	196.649	100.582	182.438	149.899	115.375	252.308	44.178	236.938	49.117	196.662	212.228	227.409	168.142	220.514	8192	-8191	8192	8192	254	
76341.344	1	1	0	0	58.6562	71.3905	49.5951	0.866892	57.645	18.2399	6.2921	78.424	192.649	203.904	180.841	117.601	184.582	148	119.322	244.404	44.335	240.759	37.424	342.651	226.192	227.193	235.454	231.547	8192	-8191	8192	8192	254	
76341.391	1	1	0	0	53.4598	59.4829	58.0956	5.45519	59.2559	25.7465	8.90007	79.9773	192.019	208.111	186.062	108.01	184.183	147.476	117.692	242.774	49.144	242.603	50.631	79.721	224.494	217.657	263.217	232.007	8192	-8191	8192	8192	254	
76341.445	1	1	0	0	59.3959	59.4227	64.5895	2.29787	45.7374	24.1332	6.0155	82.784	189.548	208.668	198.091	108.159	173.87	145.082	127.327	248.341	46.662	245.745	46.018	123.342	214.156	235.420	214.494	234.190	8192	-8191	8192	8192	254	
76341.492	1	1	0	0	50.3351	59.4928	52.3859	9.59196	65.6891	21.4213	10.459	77.8197	184.481	202.808	182.12	105.471	188.812	148.106	121.962	238.962	39.402	238.336	42.491	123.031	210.500	230.880	209.249	226.081	8192	-8191	8192	8192	254	
76341.539	1	1	0	0	65.6547	63.1013	61.1498	3.57118	56.1741	23.7135	5.52103	77.9771	193.082	203.519	176.788	108.168	176.913	154.774	113.149	243.543	49.183	240.361	46.780	70.013	225.698	218.169	141.783	222.406	8192	-8191	8192	8192	254	
76341.586	1	1	0	0	61.4355	43.6294	55.054	3.14845	46.603	27.2813	9.25933	73.4873	195.769	193.202	182.673	98.0817	177.418	141.745	124.837	253.438	46.105	236.305	47.799	40.116	216.744	211.444	211.913	235.649	8192	-8191	8192	8192	254	
76341.633	1	1	0	0	49.3598	51.7238	53.4877	3.0908	48.7462	23.7945	9.4	88.8559	189.913	205.082	188.154	104.601	168.904	148.659	115.981	245.63	50.997	245.758	53.808	277.041	227.201	237.365	236.214	223.271	8192	-8191	8192	8192	254	
76341.703	1	1	0	0	51.3493	65.4176	48.0909	4.5711	52.593	35.8872	14.4965	68.861	183.471	195.101	196.894	110.577	184.784	148.938	123.433	250.971	54.086	237.466	42.300	44.678	235.019	239.172	228.701	221.341	8192	-8191	8192	8192	254	
76341.750	1	1	0	0	57.0518	59.6712	50.5882	4.46872	48.3954	32.4006	8.22886	78.1006	185.514	200.788	183.385	107.976	178.288	147.712	122.764	244.438	46.211	236.688	51.721	148.894	223.981	226.054	272.815	220.691	8192	-8191	8192	8192	254	
76341.805	1	1	0	0	49.7881	53.5894	59.5583	10.1708	57.3891	28.4968	9.46607	75.7156	187.413	201.707	188.976	110.091	185.409	147.769	113.76	237.505	52.169	245.570	45.622	147.829	227.827	221.015	210.090	223.958	8192	-8191	8192	8192	254	
76341.852	1	1	0	0	46.9113	62.3947	49.3172	8.29888	57.4699	29.6677	20.1084	79.9151	183.005	196.745	180.394	100.298	190.952	153.159	119.26	248.043	57.604	241.338	47.416	271.108	227.659	214.567	219.410	214.331	8192	-8191	8192	8192	254	
76341.852	1	1	0	0	56.626	57.1057	55.2138	8.34904	53.8564	32.0803	15.0518	82.454	189.389	191.692	187.428	110.471	181.082	143.721	112.13	245.591	46.585	243.524	51.885	195.926	218.642	233.058	220.710	224.405	8192	-8191	8192	8192	254	
76341.898	1	1	0	0	56.0764	56.8808	50.1701	3.63877	53.8275	27.9155	12.1163	67.5241	191.024	204.428	179.269	105.712	176.543	145.856	117.303	243.159	48.708	230.371	24.967	270.830	217.878	228.106	227.686	215.880	8192	-8191	8192	8192	254	
76341.945	1	1	0	0	71.5147	55.6109	60.3332	3.54241	53.0678	34.8137	13.2901	81.5525	193.673	202.043	188.918	105.966	175.601	144.909	119.923	246.774	53.433	239.995	47.124	322.967	216.552	227.348	246.408	227.032	8192	-8191	8192	8192	254	
76341.992	1	1	0	0	57.8718	62.4982	66.0306	1.00342	54.6433	29.9287	7.11632	86.1551	193.048	202.62	191.038	109.01	179.769	147.284	119.702	243.077	43.639	241.557	40.584	279.328	224.753	223.741	213.588	219.234	8192	-8191	8192	8192	254	
76342.062	1	1	0	0	58.8282	46.903	58.3643	3.67201	45.7207	32.2731	6.43328	84.7036	184.404	196.51	186.976	98.7356	174.255	147.846	117.394	248.154	45.388	223.136	52.429	69.774	231.868	213.511	214.012	229.198	8192	-8191	8192	8192	254	
76342.109	1	1	0	0	66.5505	59.2299	47.5632	3.61757	50.4828	32.2841	15.4124	80.13	198.577	190.159	186.034	102.851	183.663	143.673	123.014	248.736	48.437	247.610	51.411	183.268	227.220	214.391	218.972	225.329	8192	-8191	8192	8192	254	
76342.164	1	1	0	0	64.2278	64.4007	59.769	7.12803	55.0856	23.5201	11.9764	80.1822	188.351	199.308	184.712	103.447	182.269	151.394	119.308	248.356	57.502	242.375	41.316	7.559	229.798	231.104	168.622	218.741	8192	-8191	8192	8192	254	
76342.211	1	1	0	0	62.7959	72.7496	51.4634	7.30207	44.6398	35.5038	17.3693	84.8595	191.736	201.779	183.183	104.49	166.524	149.317	121.707	242.197	50.501	246.820	46.291	130.700	217.645	227.688	192.936	229.475	8192	-8191	8192	8192	254	
76342.258	1	1	0	0	64.4887	55.9346	64.0767	4.80636	60.1211	35.1725	4.25072	85.9968	189.308	194.803	183.889	98.25	178.322	146.793	118.149	246.894	54.730	220.924	47.081	174.925	219.990	249.628	230.882	227.244	8192	-8191	8192	8192	254	
76342.305	1	1	0	0	57.7679	64.3973	66.0185	8.67933	59.2487	31.7405	17.2174	70.6586	177.404	203.024	182.365	103.798	178.389	147.01	116.49	234.5	51.594	237.168	49.232	58.587	215.836	206.541	230.667	223.940	8192	-8191	8192	8192	254	
76342.375	1	1	0	0	56.0618	58.6835	58.6717	5.76508	54.5216	31.8293	10.8966	68.2813	188.534	191.365	182.207	103.832	183.048	140.822	116.611	234.394	53.963	237.432	45.405	85.604	222.976	219.707	221.812	223.833	8192	-8191	8192	8192	254	
76342.430	1	1	0	0	58.1475	63.3304	51.1129	3.81667	45.0588	32.2412	14.855	83.3283	197.072	198.75	185.024	107.558	171.389	147.986	121.918	244.567	46.664	245.185	44.769	10.797	236.160	219.087	218.089	225.229	8192	-8191	8192	8192	254	
76342.477	1	1	0	0	63.4394	55.0389	56.8276	3.56672	53.7673	24.2345	12.7742	78.8298	186.62	187.062	188.731	104.606	177.861	145.712	121.135	242.51	53.487	235.685	45.664	198.333	219.169	230.933	210.783	228.326	8192	-8191	8192	8192	254	
76342.523	1	1	0	0	54.1584	61.6022	55.81	8.03913	53.4452	32.5797	10.4584	83.3122	193.784	198.784	191.091	103.192	181.851	142.173	120.635	242.019	48.248	243.628	32.932	169.243	234.977	231.240	274.431	211.498	8192	-8191	8192	8192	254	
76342.570	1	1	0	0	58.3196	51.2698	55.7986	5.12625	55.0576	25.7757	3.96262	71.905	190.183	209.957	184.577	102.034	178.851	147.87	114.505	251.745	60.244	233.220	44.336	15.357	231.399	220.718	191.868	217.206	8192	-8191	8192	8192	254	
76342.617	1	1	0	0	57.5367	55.1532	56.2019	9.51104	42.1905	29.967	13.6381	92.2735	186.764	205.101	194.284	100.341	176.466	148.572	117.01	251.812	48.216	229.948	48.968	266.261	237.606	210.365	220.604	216.989	8192	-8191	8192	8192	254	
76342.617	1	1	0	0	68.016	47.4092	47.5857	3.29059	52.2667	25.0393	7.08726	93.1329	190.332	190.034	180.562	102.029	170.904	151.471	114.817	251.591	52.600	247.671	48.189	223.605	216.543	231.533	246.861	215.716	8192	-8191	8192	8192	254	
76342.664	1	1	0	0	49.0655	56.0902	49.0881	6.67554	61.4149	30.0271	9.18782	75.7172	187.962	200.096	182.644	106.899	182.072	142.043	114.692	247.861	47.559	239.053	42.544	74.058	218.833	212.690	231.614	219.793	8192	-8191	8192	8192	254	
76342.734	1	1	0	0	59.6116	60.0203	60.5834	2.74988	40.968	19.7313	5.38509	91.1185	189.707	198.519	180.952	103.519	176.226	147.904	114.072	255.312	45.997	226.959	45.886	252.276	213.535	220.183	250.085	217.245	8192	-8191	8192	8192	254	
76342.789	1	1	0	0	53.2308	67.8403	53.8483	10.6636	51.5249	32.561	9.19244	91.7792	185.346	203.938	190.298	102.947	174.808	146.308	117.375	242.226	57.939	230.623	48.557	294.621	229.199	233.565	244.381	227.559	8192	-8191	8192	8192	254	
76342.836	1	1	8	0	63.3654	47.6345	55.4059	11.5203	59.7695	34.163	12.6512	69.7192	188.385	197.457	186.087	105.337	177.962	145.495	124.726	243.284	55.688	239.015	42.450	126.270	220.061	225.502	253.559	225.913	8192	-8191	8192	8192	254	
76342.883	1	1	0	0	76.363	53.8569	50.1544	13.463	53.7726	20.2937	14.3141	84.5569	201.678	198.644	188.178	105.76	169.639	143.615	122.745	243.37	48.933	243.151	38.751	155.340	227.151	206.441	218.855	215.700	8192	-8191	8192	8192	254	
76342.930	1	1	0	0	47.0078	62.04	55.9131	4.10119	51.2913	32.3486	9.45957	78.6097	183.639	201.394	178.582	104.976	173.827	144.01	120.337	245.572	49.433	242.044	46.363	332.718	218.171	220.910	178.523	221.090	8192	-8191	8192	8192	254	
76342.977	1	1	0	0	58.6316	39.511	61.0426	0.533898	48.7895	30.3962	13.1959	77.1582	184.942	202.5	185.12	100.514	181.837	152.37	120.087	235.048	48.600	235.682	48.696	330.385	216.053	228.496	172.525	219.464	8192	-8191	8192	8192	254	
76343.023	1	1	0	0	65.2952	61.4967	51.7694	8.57381	62.4433	20.6987	8.65653	94.1889	193.904	194.865	192.13	103.678	182.048	142.423	125.053	250.101	52.390	228.895	49.806	62.833	227.690	262.837	256.211	223.595	8192	-8191	8192	8192	254	
76343.070	1	1	0	0	60.1346	57.1627	45.4597	8.65921	50.6731	33.914	13.7827	84.5089	190.024	201.99	184.365	102.928	173.601	138.264	122.635	256.149	42.157	233.600	45.948	312.478	217.012	232.047	208.609	216.862	8192	-8191	8192	8192	254	
76343.125	1	1	0	0	49.3232	57.3924	46.1387	6.39026	51.5414	32.3207	16.0721	73.9641	186.534	194.697	191.447	103.317	174.822	145.236	119.346	243.673	42.551	248.372	39.149	225.842	230.688	218.663	253.729	222.921	8192	-8191	8192	8192	254	
76343.172	1	1	0	0	62.029	60.8112	61.7491	6.4613	44.0002	33.9728	18.3162	77.7239	198.188	191.447	193.13	101.716	178.99	142.558	114.75	245.058	42.973	242.894	37.020	332.917	229.335	234.693	230.900	219.002	8192	-8191	8192	8192	254	
76343.242	1	1	0	0	52.5832	69.5938	55.3586	2.49988	66.329	32.2559	5.47766	98.2099	187.005	200.111	190.812	106.154	188.312	144.577	126.596	245.188	46.445	241.834	45.775	95.703	217.808	217.912	148.158	225.002	8192	-8191	8192	8192	254	
76343.289	1	1	0	0	51.9524	48.9518	45.6353	5.22184	55.623	31.6875	11.8258	71.0672	191.495	199.457	179.615	103.486	183.183	148.918	119.452	237.13	48.825	241.196	42.200	263.384	232.019	243.662	247.505	221.495	8192	-8191	8192	8192	254	
76343.336	1	1	0	0	60.6992	49.9153	66.3718	16.4299	42.062	20.2469	16.4376	83.4217	186.337	191.942	191.12	107.923	176.716	150.341	117.587	235.692	44.884	232.853	45.928	156.996	228.082	265.138	229.461	224.363	8192	-8191	8192	8192	254	
76343.383	1	1	0	0	43.3246	46.074	61.1411	4.18629	56.4601	30.7076	12.4339	63.2951	192.928	189.428	189.688	101.572	175.534	147.284	118.87	237.827	56.025	234.526	49.472	161.268	225.213	214.835	198.798	216.148	8192	-8191	8192	8192	254	
76343.383	1	1	0	0	68.6421	59.2464	54.3728	5.7732	66.7444	26.9697	6.71968	75.9445	199.88	195.433	187.562	104.5	182.731	146.76	114.87	235.654	50.882	238.329	47.024	310.700	220.475	229.794	216.294	218.273	8192	-8191	8192	8192	254	
76343.438	1	1	0	0	59.0611	60.9771	59.3314	4.01852	57.9491	25.4227	15.7069	93.5524	183.226	205.404	184.149	104.582	179.409	144.245	118.832	250.082	50.519	247.442	47.716	251.028	216.078	231.207	231.207	226.309	8192	-8191	8192	8192	254	
76343.484	1	1	0	0	56.1954	56.2134	54.5068	7.31584	59.1624	26.9427	13.2071	84.5607	194.327	204.288	183.115	106.726	189.562	145.264	114.495	242.591	46.058	238.390	50.505	19.011	219.608	233.146	242.484	221.880	8192	-8191	8192	8192	254	
76343.531	1	1	0	0	56.9795	51.1321	64.9872	7.58599	53.9727	29.6216	15.038	80.1745	186.601	196.822	188.639	103.606	181.418	142.986	114.606	251.014	43.583	235.109	45.174	197.918	211.170	234.225	226.699	217.436	8192	-8191	8192	8192	254	
76343.602	1	1	0	0	67.9497	74.558	50.0232	0.971116	64.9256	21.1948	12.4236	89.5579	191.587	207.212	180.962	107.837	187.538	146.308	120.226	248.87	41.874	242.747	46.615	250.279	219.195	215.499	210.030	228.084	8192	-8191	8192	8192	254	
76343.648	1	1	0	0	64.0104	54.1234	57.0267	10.0118	46.8586	22.605	2.95171	85.9571	183.548	196.385	186.697	110.207	174.793	144.721	115.962	248.712	41.246	239.988	46.028	257.955	227.122	237.887	291.992	225.418	8192	-8191	8192	8192	254	
76343.695	1	1	0	0	61.9861	55.9619	50.7932	1.48113	55.5715	23.0338	7.57243	81.8729	191.125	196.13	188.168	102.269	183.212	145.043	120.389	241.894	46.591	231.992	44.103	298.133	220.211	220.224	147.129	228.464	8192	-8191	8192	8192	254	
76343.742	1	1	0	0	62.7736	57.1034	51.8929	2.63173	49.8205	31.8716	5.08052	88.1485	192.788	197.567	191.659	101.909	180.428	140.841	121.697	248.457	53.459	243.969	52.266	168.254	233.046	238.611	315.115	221.580	8192	-8191	8192	8192	254	
76343.797	1	1	0	0	59.2943	55.7683	53.4334	3.34518	45.0427	27.5831	9.83967	90.1969	195.572	192.894	193.375	100.774	175.077	142.726	117.63	246.639	36.051	235.063	42.548	348.324	218.582	228.901	190.589	219.285	8192	-8191	8192	8192	254	
76343.844	1	1	0	0	63.1539	69.027	48.1341	9.67642	59.3411	25.1998	11.2199	87.8845	188.394	199.279	185.659	102.178	187.212	147.572	118.457	241.192	52.083	243.597	45.219	344.344	224.377	237.376	232.266	219.352	8192	-8191	8192	8192	254	
76343.914	1	1	0	0	54.7812	61.6205	56.9106	3.97243	62.0958	26.3819	13.5129	97.6773	184.236	204.841	183.486	107.245	180.957	152.279	121.548	254.154	44.343	227.037	39.394	59.895	222.283	215.621	179.135	222.003	8192	-8191	8192	8192	254	
76343.961	1	1	0	0	48.8001	56.8111	57.3556	5.04223	55.9564	31.6557	8.76941	82.9286	189.438	197.101	189.837	102.649	173.135	142.841	117.538	237.962	36.823	236.170	43.044	93.372	213.802	218.689	240.814	220.493	8192	-8191	8192	8192	254	
76344.008	1	1	0	0	66.8466	59.3713	61.8729	4.38128	48.1955	27.6931	3.80026	87.2471	193.356	194.553	183.37	106.572	181.005	147.197	118	244.649	54.652	236.321	43.189	2.947	220.685	206.966	149.719	226.818	8192	-8191	8192	8192	254	
76344.055	1	1	0	0	63.8187	48.7103	50.6522	9.53283	47.0338	22.03	3.6237	89.1413	197.024	196.947	182.255	113.288	172.721	152.981	117.389	254.375	55.183	235.543	51.142	125.593	226.807	256.478	343.269	220.317	8192	-8191	8192	8192	254	
76344.109	1	1	0	0	70.6362	48.3511	46.7361	1.32334	42.5015	28.8517	13.9275	74.9683	189.673	202.38	183.212	109.284	176.947	149.913	127.341	245.462	42.621	240.621	45.817	296.179	205.990	229.149	233.630	226.654	8192	-8191	8192	8192	254	
76344.156	1	1	0	0	62.1925	59.4308	58.7966	6.27183	49.2701	33.6024	4.91009	101.708	189.038	199.774	185.562	105.798	175.75	149.519	123.731	252.087	58.558	238.174	46.723	238.676	218.396	219.178	220.477	218.613	8192	-8191	8192	8192	254	
76344.156	1	1	0	0	65.4903	47.0591	53.8447	10.351	61.6033	34.0172	4.59188	87.0096	189.572	199.26	183.447	105.601	180.76	142.433	122.236	252.476	48.069	242.818	44.776	188.532	226.339	219.806	226.770	217.607	8192	-8191	8192	8192	254	
76344.203	1	1	0	0	57.9941	48.7592	50.7599	4.78058	56.3606	20.3519	22.3142	82.1686	187.399	198.024	181.942	104.51	187.615	142.793	123.861	234.514	40.767	235.195	45.477	94.575	216.623	227.746	217.647	223.409	8192	-8191	8192	8192	254	
76344.273	1	1	0	0	55.403	64.5256	49.9056	5.98351	54.4729	27.2725	11.4513	81.5236	187.149	203.582	184.99	98.5673	183.255	140.788	122.481	245.923	57.821	241.337	38.253	243.368	239.257	216.121	232.790	225.098	8192	-8191	8192	8192	254	
76344.320	1	1	0	0	52.7744	59.37	49.6072	2.93168	54.7844	36.8569	9.23312	86.4594	187.308	198.413	190.139	99.1394	176.942	149.639	117.894	242.995	43.674	236.526	44.074	225.954	221.933	235.853	202.416	217.024	8192	-8191	8192	8192	254	
76344.367	1	1	0	0	55.7231	56.6099	61.7837	4.25487	56.0328	19.5286	9.20392	76.3853	193.909	197.01	186.841	102.111	182.514	148.144	119.697	252.274	42.209	245.908	47.756	214.761	217.402	220.029	245.323	217.009	8192	-8191	8192	8192	254	
76344.422	1	1	0	0	61.0488	66.8057	49.8708	1.63724	51.6792	28.4772	10.9943	74.5569	186.74	205.88	182.163	105.019	167.957	144.221	115.832	243.005	41.259	233.935	53.820	206.806	227.363	238.359	219.293	214.151	8192	-8191	8192	8192	254	
#DATA ENDS
